      Actinolite
Diffraction data computed using the structure from the paper listed below, 
along with the cell parameters refined from the powder pattern of R040064
      Evans B W, Yang H
      American Mineralogist 83 (1998) 458-475
      Fe-Mg order-disorder in tremolite-actinolite-ferro-actinolite at ambient
      and high temperature
      Sample: NMNH 93728 from Greiner, Zillertal, Austria in act-talc rock

      CELL PARAMETERS:   9.8429 18.0745  5.2829   90.000  104.714   90.000
      SPACE GROUP: C2/m      

           ATOM        X         Y         Z     OCCUPANCY  ISO(B)
            Fe     0.00000   0.08790   0.50000     0.095     0.482
            Mn     0.00000   0.08790   0.50000     0.002     0.482
            Mg     0.00000   0.08790   0.50000     0.903     0.482
            Fe     0.00000   0.17700   0.00000     0.092     0.453
            Mn     0.00000   0.17700   0.00000     0.003     0.453
            Mg     0.00000   0.17700   0.00000     0.873     0.453
            Al     0.00000   0.17700   0.00000     0.031     0.453
            Ti     0.00000   0.17700   0.00000     0.001     0.453
            Fe     0.00000   0.00000   0.00000     0.095     0.428
            Mg     0.00000   0.00000   0.00000     0.905     0.428
            Fe     0.00000   0.27690   0.50000     0.053     0.827
            Mn     0.00000   0.27690   0.50000     0.003     0.827
            Mg     0.00000   0.27690   0.50000     0.011     0.827
            Ca     0.00000   0.27690   0.50000     0.901     0.827
            Na     0.00000   0.27690   0.50000     0.032     0.827
            Si     0.28050   0.08410   0.29580     0.985     0.342
            Al     0.28050   0.08410   0.29580     0.015     0.342
            Si     0.28900   0.17100   0.80390     1.000     0.397
            K      0.04800   0.50000   0.04900     0.007     1.500
            Na     0.04800   0.50000   0.04900     0.030     1.500
            H      0.19000   0.00000   0.76500     0.970     1.000
            O      0.11160   0.08650   0.21630     1.000     0.505
            O      0.11910   0.17150   0.72450     1.000     0.556
            O      0.11000   0.00000   0.71570     1.000     0.605
            O      0.36630   0.24770   0.79120     1.000     0.720
            O      0.34680   0.13420   0.09870     1.000     0.603
            O      0.34400   0.11840   0.58800     1.000     0.696
            O      0.33670   0.00000   0.29070     1.000     0.659

            X-RAY WAVELENGTH:     1.541838
            BOUNDS ON TWO THETA:    5.0  90.0
            LIMITS IMPOSED ON THE INDICES ARE:  +/-  8 +/- 16 +/-  4
            MAX. ABS. INTENSITY / VOLUME**2:      6.615412157    
            The INTENSITY cut off value is   1.00

               2-THETA      INTENSITY    D-SPACING   H   K   L
                 9.79         37.85        9.0372    0   2   0
                10.50         80.84        8.4231    1   1   0
                17.36          4.26        5.1097    0   0   1
                17.42         10.44        5.0910    1   3   0
                18.17         29.37        4.8822   -1   1   1
                18.64          2.65        4.7601    2   0   0
                19.65         23.01        4.5186    0   4   0
                19.96          1.30        4.4479    0   2   1
                21.09          8.25        4.2116    2   2   0
                22.05          2.49        4.0307   -2   0   1
                22.29          2.99        3.9892    1   1   1
                22.92         22.29        3.8795   -1   3   1
                26.34         50.81        3.3840    1   3   1
                27.21         35.43        3.2772    2   4   0
                28.56         64.83        3.1256    3   1   0
                28.69          1.92        3.1110    2   0   1
                29.54          1.84        3.0243   -3   1   1
                30.37          4.94        2.9435   -1   5   1
                30.39         36.35        2.9416    2   2   1
                31.87          9.91        2.8077    3   3   0
                32.76         22.31        2.7336   -3   3   1
                33.07        100.00        2.7086    1   5   1
                34.56         35.58        2.5950    0   6   1
                35.13          6.86        2.5548    0   0   2
                35.40         57.85        2.5354   -2   0   2
                36.55          1.63        2.4585    0   2   2
                36.82          2.22        2.4411   -2   2   2
                37.26          2.32        2.4130   -2   6   1
                37.29          1.04        2.4113    3   1   1
                37.41          1.01        2.4038   -4   0   1
                37.72          6.52        2.3848    3   5   0
                38.49         34.66        2.3389   -3   5   1
                38.76         14.32        2.3230   -4   2   1
                39.15         15.08        2.3009   -1   7   1
                39.58         19.03        2.2768   -3   1   2
                39.96          1.10        2.2560    3   3   1
                40.81          6.22        2.2111   -2   4   2
                41.35          5.00        2.1834    1   7   1
                41.65          1.23        2.1684    1   3   2
                41.74         29.82        2.1641    2   6   1
                42.13          3.25        2.1447   -3   3   2
                42.38          2.72        2.1326   -1   5   2
                44.29         16.84        2.0450    2   0   2
                44.91         14.11        2.0184    3   5   1
                44.98          9.39        2.0154   -4   0   2
                45.28          5.87        2.0028    3   7   0
                45.94          1.76        1.9754   -3   7   1
                46.15          1.29        1.9671   -4   2   2
                46.20          4.90        1.9650    1   9   0
                46.89          3.39        1.9375   -3   5   2
                47.12          1.67        1.9286    4   2   1
                48.05          6.50        1.8935    5   1   0
                48.45          2.42        1.8789   -4   6   1
                48.77         10.47        1.8672   -1   9   1
                48.89          2.49        1.8631    2   4   2
                49.36          3.60        1.8463   -1   7   2
                49.52          3.53        1.8406   -4   4   2
                50.25          4.05        1.8155    5   3   0
                50.49          2.16        1.8074    0  10   0
                52.37          5.44        1.7469   -5   1   2
                53.29          1.67        1.7189   -5   5   1
                53.41          1.33        1.7154   -3   7   2
                53.80          1.78        1.7040    0  10   1
                54.19          1.12        1.6925    0   8   2
                54.39          6.66        1.6868   -2   8   2
                54.43          7.07        1.6856   -1   3   3
                54.62          1.11        1.6802   -3   9   1
                54.85          5.56        1.6738    0   2   3
                55.67         24.66        1.6511    4   6   1
                56.13          6.78        1.6386    4   8   0
                56.86         12.67        1.6192    1  11   0
                58.14          4.19        1.5867    6   0   0
                58.44         22.13        1.5793   -1   5   3
                59.11          1.10        1.5628    2  10   1
                59.31          1.01        1.5581   -5   7   1
                59.42          5.12        1.5555    4   0   2
                60.35         10.16        1.5337   -6   0   2
                60.97          4.01        1.5196    1   9   2
                61.23         20.30        1.5138   -2   6   3
                61.57         10.40        1.5062    0  12   0
                61.67          2.54        1.5040   -4   8   2
                61.73          5.14        1.5026    5   5   1
                62.66          1.31        1.4826    0   6   3
                63.18          1.80        1.4717   -2  10   2
                63.22          3.63        1.4708    4   4   2
                63.34          1.64        1.4684    2   2   3
                63.44          1.15        1.4662    3   7   2
                63.79          4.43        1.4591    3  11   0
                64.12          3.06        1.4524   -6   4   2
                64.14          3.19        1.4519   -1   7   3
                64.31          1.18        1.4484   -3  11   1
                64.77          1.16        1.4394    4  10   0
                64.80         29.10        1.4388   -6   6   1
                65.43          1.53        1.4264   -5   3   3
                66.84          1.21        1.3997    6   2   1
                68.76         11.48        1.3652    5   1   2
                69.05          4.73        1.3603   -5   5   3
                69.28          2.67        1.3562    7   1   0
                70.14          7.33        1.3417    1  11   2
                70.19          1.17        1.3409   -1  13   1
                70.48          4.12        1.3360   -3  11   2
                70.54          2.63        1.3351    5   3   2
                70.59          5.30        1.3343    2   6   3
                71.37          2.14        1.3216   -5   9   2
                71.56          1.04        1.3185   -7   3   2
                72.07          7.86        1.3104   -7   5   1
                72.27          5.98        1.3073   -1   1   4
                72.84          1.09        1.2985    6   8   0
                72.90          5.57        1.2975    0  12   2
                73.07         13.78        1.2949   -2  12   2
                73.19          1.40        1.2932   -3   9   3
                73.93          2.27        1.2821    6   6   1
                74.02          1.66        1.2807   -1   3   4
                74.24          3.55        1.2774    0   0   4
                74.35          1.23        1.2758   -3   3   4
                74.91          5.02        1.2677   -4   0   4
                77.26          1.02        1.2348   -7   7   1
                77.47          1.23        1.2320    4   2   3
                77.66          1.79        1.2295   -2  14   1
                79.99          8.96        1.1995   -5  11   2
                80.76          2.19        1.1900    8   0   0
                83.12          4.42        1.1621    2   0   4
                83.17          1.35        1.1615   -8   4   2
                83.67          1.18        1.1558    1  15   1
                84.23          1.19        1.1495    4   6   3
                84.29          1.45        1.1489    2  10   3
                86.41          2.72        1.1261    7   9   0
                86.72          1.07        1.1228    5  13   0
                87.51          1.11        1.1147    5   3   3
                87.76          1.83        1.1122   -6   4   4
                88.28          1.06        1.1070   -7   7   3
                88.68          1.02        1.1030    0  16   1
                89.95          1.63        1.0908    3   1   4
================================================================================
       XPOW Copyright 1993 Bob Downs, Ranjini Swaminathan and Kurt Bartelmehs
  For reference, see Downs et al. (1993) American Mineralogist 78, 1104-1107.
