      Wickenburgite
Diffraction data computed using the structure from the paper listed below,
along with the cell parameters refined from single crystal data of R060087
      Lam A E, Groat L A
      The Canadian Mineralogist 32 (1994) 525-532
      The crystal structure of wickenburgite, Pb3CaAl[AlSi10O27](H2O)3, a sheet
      structure
      Sample: UBC refinement

      CELL PARAMETERS:   8.5338  8.5338 20.1330   90.000   90.000  120.000
      SPACE GROUP: P31c      

           ATOM        X         Y         Z     OCCUPANCY  ISO(B)
            Pb     0.29190   0.25860   0.00000     1.000     0.947
            Ca     0.00000   0.00000   0.14650     1.000     1.737
            Al     0.66667   0.33333   0.48520     0.970     0.790
            Fe     0.66667   0.33333   0.48520     0.030     0.790
            Al     0.33333   0.66667   0.36780     1.000     0.316
            Si     0.66667   0.33333   0.13390     1.000     1.026
            Si     0.00000   0.00000   0.37310     1.000     1.263
            Si     0.66667   0.33333   0.28890     1.000     1.026
            Si     0.33333   0.66667   0.20220     1.000     1.263
            Si     0.38710   0.05910   0.37820     1.000     1.421
            Si     0.06180   0.41210   0.09820     1.000     1.500
            O      0.33333   0.66667   0.28000     1.000     1.421
            O      0.66667   0.33333   0.21400     1.000     2.685
            O      0.00000   0.00000   0.45600     1.000     3.237
            O      0.14500   0.50100   0.17200     1.000     2.053
            O      0.48900   0.15600   0.10700     1.000     1.895
            O      0.51200   0.13700   0.31600     1.000     1.816
            O      0.13400   0.57100   0.04300     1.000     1.579
            O      0.19700   0.03500   0.34600     1.000     2.842
            O      0.08700   0.24100   0.07500     1.000     1.895
            H      0.22900   0.19700   0.22100     1.000     3.553
            O      0.45300   0.21400   0.43500     1.000     1.184
            O      0.50500   0.64400   0.40000     1.000     0.869

            X-RAY WAVELENGTH:     1.541838
            BOUNDS ON TWO THETA:    5.0  90.0
            LIMITS IMPOSED ON THE INDICES ARE:  +/-  6 +/-  6 +/- 18
            MAX. ABS. INTENSITY / VOLUME**2:      107.5739549    
            The INTENSITY cut off value is   1.00

               2-THETA      INTENSITY    D-SPACING   H   K   L
                 8.78        100.00       10.0665    0   0   2
                11.98          1.46        7.3905    1   0   0
                14.87         11.34        5.9574    1   0   2
                17.62          3.60        5.0332    0   0   4
                20.82          4.88        4.2669    1   1   0
                21.36          1.46        4.1601    1   0   4
                22.63         27.54        3.9286    2  -1   2
                22.63         24.81        3.9286    1   1   2
                24.08          1.56        3.6952    2   0   0
                24.49          1.20        3.6345    2   0   1
                25.68          3.57        3.4689    2   0   2
                26.56          6.35        3.3555    0   0   6
                27.40         18.98        3.2547    2  -1   4
                27.40         31.06        3.2547    1   1   4
                27.56          5.86        3.2370    2   0   3
                29.23          2.70        3.0553    1   0   6
                30.00          7.22        2.9787    2   0   4
                32.04         11.00        2.7933    2   1   0
                32.36          2.39        2.7668    3  -1   1
                32.36          1.90        2.7668    2   1   1
                32.90          6.25        2.7226    2   0   5
                33.29          5.92        2.6916    3  -1   2
                33.29          6.57        2.6916    2   1   2
                33.99         10.72        2.6376    1   1   6
                33.99          7.00        2.6376    2  -1   6
                35.68          3.87        2.5166    0   0   8
                36.16          1.54        2.4841    2   0   6
                36.47          7.77        2.4635    3   0   0
                36.80          2.78        2.4424    3  -1   4
                36.80          7.95        2.4424    2   1   4
                37.59          3.68        2.3929    3   0   2
                37.76          1.29        2.3823    1   0   8
                38.95          1.01        2.3126    3   0   3
                40.78          2.68        2.2127    3   0   4
                41.67          2.65        2.1677    1   1   8
                41.67          4.74        2.1677    2  -1   8
                42.09          2.11        2.1468    3  -1   6
                42.09          3.95        2.1468    2   1   6
                42.37          2.25        2.1335    2   2   0
                43.35          1.13        2.0871    4  -2   2
                43.35          1.39        2.0871    2   2   2
                44.19          2.22        2.0498    3   1   0
                44.43          2.74        2.0392    3   1   1
                44.43          2.84        2.0392    4  -1   1
                45.03          2.37        2.0133    0   0  10
                45.14          2.29        2.0085    3   1   2
                45.14          1.87        2.0085    4  -1   2
                45.69          3.95        1.9858    3   0   6
                46.31          1.80        1.9604    3   1   3
                46.31          2.08        1.9604    4  -1   3
                47.92          1.42        1.8984    4  -1   4
                48.70          3.11        1.8697    3  -1   8
                48.70          1.85        1.8697    2   1   8
                49.32          1.19        1.8476    4   0   0
                50.10          2.53        1.8208    2  -1  10
                50.10          1.98        1.8208    1   1  10
                50.20          4.22        1.8173    4   0   2
                51.94          5.10        1.7604    3   0   8
                52.30          1.53        1.7492    3   1   6
                52.30          1.48        1.7492    4  -1   6
                52.78          3.54        1.7345    4   0   4
                54.09          2.17        1.6955    3   2   0
                54.92          1.88        1.6719    5  -2   2
                54.92          2.48        1.6719    3   2   2
                55.01          1.13        1.6692    3   1   7
                55.01          1.14        1.6692    4  -1   7
                55.94          1.14        1.6438    5  -2   3
                55.94          1.29        1.6438    3   2   3
                56.33          2.41        1.6333    3  -1  10
                56.33          2.23        1.6333    2   1  10
                56.89          2.88        1.6185    4   0   6
                57.34          2.28        1.6068    5  -2   4
                57.34          2.56        1.6068    3   2   4
                58.03          1.28        1.5893    3   1   8
                59.12          1.43        1.5626    5  -2   5
                59.12          1.29        1.5626    3   2   5
                59.17          1.65        1.5614    2  -1  12
                59.17          2.47        1.5614    1   1  12
                59.28          2.09        1.5589    3   0  10
                61.25          1.48        1.5133    5  -2   6
                61.25          1.66        1.5133    3   2   6
                61.34          1.33        1.5113    3   1   9
                62.35          1.72        1.4893    4   0   8
                64.56          1.08        1.4435    5   0   3
                66.49          1.46        1.4061    5  -2   8
                66.49          1.13        1.4061    3   2   8
                67.50          1.60        1.3876    5   0   5
                68.90          1.35        1.3628    1   1  14
                71.01          1.56        1.3274    5   1   0
                71.72          1.10        1.3160    5   1   2
                72.95          1.11        1.2969    5  -2  10
                73.83          1.11        1.2835    6  -1   4
                76.73          1.13        1.2421    4   0  12
                76.74          1.05        1.2419    3   0  14
================================================================================
       XPOW Copyright 1993 Bob Downs, Ranjini Swaminathan and Kurt Bartelmehs
  For reference, see Downs et al. (1993) American Mineralogist 78, 1104-1107.
