angle,intensity
5.0,410.0
5.01,354.0
5.02,391.0
5.03,338.0
5.04,353.0
5.05,373.0
5.06,352.0
5.07,387.0
5.08,387.0
5.09,388.0
5.1,349.0
5.11,400.0
5.12,400.0
5.13,382.0
5.14,367.0
5.15,383.0
5.16,421.0
5.17,393.0
5.18,377.0
5.19,403.0
5.2,403.0
5.21,366.0
5.22,375.0
5.23,359.0
5.24,363.0
5.25,378.0
5.26,380.0
5.27,387.0
5.28,366.0
5.29,376.0
5.3,397.0
5.31,370.0
5.32,384.0
5.33,361.0
5.34,383.0
5.35,369.0
5.36,382.0
5.37,352.0
5.38,387.0
5.39,394.0
5.4,400.0
5.41,397.0
5.42,397.0
5.43,379.0
5.44,358.0
5.45,407.0
5.46,384.0
5.47,394.0
5.48,381.0
5.49,362.0
5.5,374.0
5.51,373.0
5.52,375.0
5.53,379.0
5.54,417.0
5.55,388.0
5.56,375.0
5.57,373.0
5.58,367.0
5.59,395.0
5.6,414.0
5.61,401.0
5.62,395.0
5.63,404.0
5.64,399.0
5.65,376.0
5.66,382.0
5.67,393.0
5.68,372.0
5.69,409.0
5.7,377.0
5.71,386.0
5.72,410.0
5.73,400.0
5.74,418.0
5.75,405.0
5.76,387.0
5.77,390.0
5.78,396.0
5.79,345.0
5.8,410.0
5.81,430.0
5.82,381.0
5.83,378.0
5.84,416.0
5.85,351.0
5.86,390.0
5.87,422.0
5.88,412.0
5.89,414.0
5.9,408.0
5.91,403.0
5.92,410.0
5.93,415.0
5.94,438.0
5.95,381.0
5.96,428.0
5.97,423.0
5.98,392.0
5.99,357.0
6.0,373.0
6.01,389.0
6.02,429.0
6.03,415.0
6.04,392.0
6.05,395.0
6.06,410.0
6.07,431.0
6.08,426.0
6.09,417.0
6.1,381.0
6.11,433.0
6.12,417.0
6.13,420.0
6.14,406.0
6.15,423.0
6.16,397.0
6.17,414.0
6.18,400.0
6.19,378.0
6.2,448.0
6.21,432.0
6.22,445.0
6.23,461.0
6.24,396.0
6.25,433.0
6.26,409.0
6.27,402.0
6.28,449.0
6.29,435.0
6.3,451.0
6.31,434.0
6.32,422.0
6.33,443.0
6.34,420.0
6.35,437.0
6.36,456.0
6.37,431.0
6.38,432.0
6.39,439.0
6.4,428.0
6.41,438.0
6.42,454.0
6.43,457.0
6.44,447.0
6.45,437.0
6.46,459.0
6.47,456.0
6.48,491.0
6.49,429.0
6.5,480.0
6.51,474.0
6.52,448.0
6.53,437.0
6.54,462.0
6.55,433.0
6.56,444.0
6.57,480.0
6.58,449.0
6.59,518.0
6.6,478.0
6.61,413.0
6.62,462.0
6.63,439.0
6.64,467.0
6.65,452.0
6.66,449.0
6.67,501.0
6.68,437.0
6.69,430.0
6.7,461.0
6.71,466.0
6.72,492.0
6.73,462.0
6.74,486.0
6.75,431.0
6.76,471.0
6.77,460.0
6.78,514.0
6.79,446.0
6.8,493.0
6.81,476.0
6.82,444.0
6.83,431.0
6.84,481.0
6.85,515.0
6.86,495.0
6.87,432.0
6.88,486.0
6.89,463.0
6.9,500.0
6.91,478.0
6.92,475.0
6.93,485.0
6.94,498.0
6.95,491.0
6.96,466.0
6.97,502.0
6.98,486.0
6.99,483.0
7.0,512.0
7.01,478.0
7.02,498.0
7.03,495.0
7.04,454.0
7.05,475.0
7.06,454.0
7.07,503.0
7.08,499.0
7.09,453.0
7.1,435.0
7.11,441.0
7.12,495.0
7.13,453.0
7.14,529.0
7.15,502.0
7.16,467.0
7.17,470.0
7.18,475.0
7.19,513.0
7.2,507.0
7.21,494.0
7.22,501.0
7.23,453.0
7.24,477.0
7.25,489.0
7.26,475.0
7.27,462.0
7.28,506.0
7.29,498.0
7.3,501.0
7.31,463.0
7.32,479.0
7.33,474.0
7.34,417.0
7.35,457.0
7.36,469.0
7.37,472.0
7.38,454.0
7.39,456.0
7.4,496.0
7.41,424.0
7.42,466.0
7.43,485.0
7.44,436.0
7.45,402.0
7.46,392.0
7.47,449.0
7.48,438.0
7.49,447.0
7.5,401.0
7.51,423.0
7.52,416.0
7.53,409.0
7.54,414.0
7.55,462.0
7.56,422.0
7.57,433.0
7.58,409.0
7.59,432.0
7.6,450.0
7.61,444.0
7.62,414.0
7.63,441.0
7.64,417.0
7.65,379.0
7.66,410.0
7.67,444.0
7.68,444.0
7.69,390.0
7.7,428.0
7.71,400.0
7.72,414.0
7.73,413.0
7.74,419.0
7.75,415.0
7.76,453.0
7.77,437.0
7.78,459.0
7.79,441.0
7.8,416.0
7.81,436.0
7.82,409.0
7.83,439.0
7.84,428.0
7.85,435.0
7.86,457.0
7.87,440.0
7.88,434.0
7.89,448.0
7.9,430.0
7.91,428.0
7.92,427.0
7.93,442.0
7.94,397.0
7.95,431.0
7.96,436.0
7.97,406.0
7.98,467.0
7.99,449.0
8.0,451.0
8.01,446.0
8.02,416.0
8.03,438.0
8.04,391.0
8.05,386.0
8.06,421.0
8.07,432.0
8.08,447.0
8.09,432.0
8.1,417.0
8.11,463.0
8.12,387.0
8.13,425.0
8.14,438.0
8.15,437.0
8.16,381.0
8.17,406.0
8.18,465.0
8.19,401.0
8.2,436.0
8.21,423.0
8.22,402.0
8.23,421.0
8.24,408.0
8.25,381.0
8.26,385.0
8.27,467.0
8.28,425.0
8.29,432.0
8.3,402.0
8.31,437.0
8.32,449.0
8.33,395.0
8.34,451.0
8.35,427.0
8.36,462.0
8.37,444.0
8.38,414.0
8.39,399.0
8.4,451.0
8.41,412.0
8.42,398.0
8.43,402.0
8.44,469.0
8.45,426.0
8.46,394.0
8.47,443.0
8.48,430.0
8.49,437.0
8.5,417.0
8.51,422.0
8.52,447.0
8.53,435.0
8.54,471.0
8.55,412.0
8.56,417.0
8.57,449.0
8.58,434.0
8.59,448.0
8.6,431.0
8.61,458.0
8.62,473.0
8.63,429.0
8.64,433.0
8.65,389.0
8.66,452.0
8.67,461.0
8.68,443.0
8.69,417.0
8.7,435.0
8.71,417.0
8.72,421.0
8.73,429.0
8.74,427.0
8.75,412.0
8.76,469.0
8.77,431.0
8.78,447.0
8.79,425.0
8.8,437.0
8.81,485.0
8.82,438.0
8.83,453.0
8.84,435.0
8.85,423.0
8.86,480.0
8.87,432.0
8.88,446.0
8.89,417.0
8.9,409.0
8.91,428.0
8.92,440.0
8.93,451.0
8.94,483.0
8.95,415.0
8.96,426.0
8.97,427.0
8.98,461.0
8.99,431.0
9.0,417.0
9.01,483.0
9.02,456.0
9.03,417.0
9.04,445.0
9.05,429.0
9.06,420.0
9.07,464.0
9.08,446.0
9.09,420.0
9.1,451.0
9.11,464.0
9.12,446.0
9.13,421.0
9.14,446.0
9.15,423.0
9.16,435.0
9.17,435.0
9.18,438.0
9.19,439.0
9.2,411.0
9.21,431.0
9.22,422.0
9.23,438.0
9.24,451.0
9.25,436.0
9.26,438.0
9.27,440.0
9.28,451.0
9.29,401.0
9.3,436.0
9.31,439.0
9.32,456.0
9.33,438.0
9.34,442.0
9.35,451.0
9.36,470.0
9.37,443.0
9.38,435.0
9.39,432.0
9.4,421.0
9.41,461.0
9.42,455.0
9.43,438.0
9.44,475.0
9.45,423.0
9.46,422.0
9.47,428.0
9.48,462.0
9.49,460.0
9.5,402.0
9.51,431.0
9.52,470.0
9.53,429.0
9.54,449.0
9.55,445.0
9.56,439.0
9.57,460.0
9.58,455.0
9.59,400.0
9.6,428.0
9.61,480.0
9.62,442.0
9.63,432.0
9.64,443.0
9.65,456.0
9.66,460.0
9.67,420.0
9.68,488.0
9.69,429.0
9.7,454.0
9.71,448.0
9.72,456.0
9.73,455.0
9.74,432.0
9.75,431.0
9.76,451.0
9.77,426.0
9.78,416.0
9.79,462.0
9.8,474.0
9.81,449.0
9.82,453.0
9.83,424.0
9.84,428.0
9.85,435.0
9.86,453.0
9.87,430.0
9.88,438.0
9.89,465.0
9.9,445.0
9.91,460.0
9.92,481.0
9.93,438.0
9.94,464.0
9.95,450.0
9.96,455.0
9.97,444.0
9.98,437.0
9.99,427.0
10.0,460.0
10.01,456.0
10.02,474.0
10.03,435.0
10.04,466.0
10.05,449.0
10.06,443.0
10.07,400.0
10.08,452.0
10.09,474.0
10.1,448.0
10.11,438.0
10.12,456.0
10.13,469.0
10.14,437.0
10.15,427.0
10.16,450.0
10.17,437.0
10.18,432.0
10.19,439.0
10.2,486.0
10.21,468.0
10.22,444.0
10.23,439.0
10.24,472.0
10.25,424.0
10.26,443.0
10.27,461.0
10.28,465.0
10.29,502.0
10.3,439.0
10.31,460.0
10.32,451.0
10.33,459.0
10.34,456.0
10.35,439.0
10.36,470.0
10.37,445.0
10.38,483.0
10.39,466.0
10.4,446.0
10.41,455.0
10.42,473.0
10.43,460.0
10.44,470.0
10.45,408.0
10.46,479.0
10.47,509.0
10.48,467.0
10.49,428.0
10.5,437.0
10.51,460.0
10.52,442.0
10.53,451.0
10.54,468.0
10.55,471.0
10.56,470.0
10.57,462.0
10.58,452.0
10.59,501.0
10.6,448.0
10.61,453.0
10.62,501.0
10.63,434.0
10.64,468.0
10.65,477.0
10.66,468.0
10.67,449.0
10.68,422.0
10.69,463.0
10.7,453.0
10.71,456.0
10.72,499.0
10.73,476.0
10.74,460.0
10.75,450.0
10.76,476.0
10.77,468.0
10.78,475.0
10.79,468.0
10.8,482.0
10.81,434.0
10.82,452.0
10.83,468.0
10.84,477.0
10.85,477.0
10.86,443.0
10.87,488.0
10.88,429.0
10.89,477.0
10.9,454.0
10.91,469.0
10.92,457.0
10.93,447.0
10.94,441.0
10.95,478.0
10.96,471.0
10.97,476.0
10.98,455.0
10.99,472.0
11.0,451.0
11.01,445.0
11.02,514.0
11.03,458.0
11.04,456.0
11.05,488.0
11.06,520.0
11.07,411.0
11.08,464.0
11.09,457.0
11.1,442.0
11.11,470.0
11.12,469.0
11.13,470.0
11.14,470.0
11.15,470.0
11.16,469.0
11.17,454.0
11.18,434.0
11.19,473.0
11.2,474.0
11.21,491.0
11.22,483.0
11.23,458.0
11.24,498.0
11.25,487.0
11.26,484.0
11.27,487.0
11.28,516.0
11.29,474.0
11.3,476.0
11.31,425.0
11.32,521.0
11.33,473.0
11.34,497.0
11.35,504.0
11.36,451.0
11.37,492.0
11.38,474.0
11.39,479.0
11.4,421.0
11.41,479.0
11.42,501.0
11.43,467.0
11.44,496.0
11.45,460.0
11.46,469.0
11.47,470.0
11.48,491.0
11.49,478.0
11.5,493.0
11.51,447.0
11.52,479.0
11.53,498.0
11.54,489.0
11.55,489.0
11.56,465.0
11.57,465.0
11.58,445.0
11.59,462.0
11.6,512.0
11.61,485.0
11.62,472.0
11.63,513.0
11.64,478.0
11.65,497.0
11.66,451.0
11.67,426.0
11.68,507.0
11.69,474.0
11.7,497.0
11.71,429.0
11.72,507.0
11.73,469.0
11.74,496.0
11.75,499.0
11.76,505.0
11.77,459.0
11.78,477.0
11.79,471.0
11.8,452.0
11.81,440.0
11.82,484.0
11.83,505.0
11.84,435.0
11.85,496.0
11.86,486.0
11.87,494.0
11.88,450.0
11.89,481.0
11.9,494.0
11.91,484.0
11.92,474.0
11.93,475.0
11.94,475.0
11.95,513.0
11.96,522.0
11.97,523.0
11.98,491.0
11.99,516.0
12.0,510.0
12.01,497.0
12.02,422.0
12.03,484.0
12.04,512.0
12.05,495.0
12.06,469.0
12.07,457.0
12.08,488.0
12.09,495.0
12.1,448.0
12.11,472.0
12.12,465.0
12.13,437.0
12.14,494.0
12.15,462.0
12.16,495.0
12.17,455.0
12.18,453.0
12.19,466.0
12.2,493.0
12.21,508.0
12.22,466.0
12.23,467.0
12.24,517.0
12.25,488.0
12.26,451.0
12.27,487.0
12.28,449.0
12.29,507.0
12.3,466.0
12.31,475.0
12.32,466.0
12.33,495.0
12.34,481.0
12.35,471.0
12.36,473.0
12.37,468.0
12.38,491.0
12.39,484.0
12.4,476.0
12.41,442.0
12.42,463.0
12.43,499.0
12.44,498.0
12.45,468.0
12.46,443.0
12.47,491.0
12.48,467.0
12.49,481.0
12.5,448.0
12.51,474.0
12.52,440.0
12.53,533.0
12.54,461.0
12.55,498.0
12.56,449.0
12.57,479.0
12.58,432.0
12.59,464.0
12.6,490.0
12.61,443.0
12.62,451.0
12.63,461.0
12.64,487.0
12.65,477.0
12.66,496.0
12.67,502.0
12.68,513.0
12.69,464.0
12.7,447.0
12.71,456.0
12.72,457.0
12.73,488.0
12.74,457.0
12.75,452.0
12.76,488.0
12.77,482.0
12.78,497.0
12.79,518.0
12.8,524.0
12.81,485.0
12.82,478.0
12.83,442.0
12.84,430.0
12.85,476.0
12.86,441.0
12.87,498.0
12.88,494.0
12.89,440.0
12.9,506.0
12.91,477.0
12.92,459.0
12.93,511.0
12.94,525.0
12.95,471.0
12.96,509.0
12.97,466.0
12.98,464.0
12.99,513.0
13.0,490.0
13.01,505.0
13.02,466.0
13.03,496.0
13.04,508.0
13.05,460.0
13.06,476.0
13.07,431.0
13.08,461.0
13.09,495.0
13.1,468.0
13.11,482.0
13.12,482.0
13.13,494.0
13.14,478.0
13.15,468.0
13.16,470.0
13.17,501.0
13.18,443.0
13.19,489.0
13.2,460.0
13.21,425.0
13.22,492.0
13.23,463.0
13.24,462.0
13.25,468.0
13.26,460.0
13.27,500.0
13.28,466.0
13.29,467.0
13.3,487.0
13.31,451.0
13.32,492.0
13.33,472.0
13.34,504.0
13.35,478.0
13.36,522.0
13.37,475.0
13.38,488.0
13.39,458.0
13.4,488.0
13.41,480.0
13.42,480.0
13.43,508.0
13.44,456.0
13.45,513.0
13.46,497.0
13.47,519.0
13.48,477.0
13.49,535.0
13.5,467.0
13.51,458.0
13.52,498.0
13.53,468.0
13.54,490.0
13.55,512.0
13.56,479.0
13.57,489.0
13.58,479.0
13.59,472.0
13.6,485.0
13.61,456.0
13.62,458.0
13.63,509.0
13.64,506.0
13.65,529.0
13.66,428.0
13.67,461.0
13.68,462.0
13.69,428.0
13.7,488.0
13.71,495.0
13.72,503.0
13.73,467.0
13.74,525.0
13.75,484.0
13.76,481.0
13.77,484.0
13.78,430.0
13.79,449.0
13.8,486.0
13.81,497.0
13.82,453.0
13.83,513.0
13.84,497.0
13.85,481.0
13.86,510.0
13.87,450.0
13.88,478.0
13.89,467.0
13.9,477.0
13.91,517.0
13.92,501.0
13.93,489.0
13.94,504.0
13.95,523.0
13.96,473.0
13.97,473.0
13.98,484.0
13.99,483.0
14.0,526.0
14.01,466.0
14.02,420.0
14.03,484.0
14.04,492.0
14.05,514.0
14.06,482.0
14.07,502.0
14.08,485.0
14.09,471.0
14.1,458.0
14.11,484.0
14.12,475.0
14.13,443.0
14.14,490.0
14.15,479.0
14.16,472.0
14.17,489.0
14.18,507.0
14.19,495.0
14.2,515.0
14.21,499.0
14.22,452.0
14.23,480.0
14.24,479.0
14.25,506.0
14.26,507.0
14.27,510.0
14.28,495.0
14.29,469.0
14.3,464.0
14.31,505.0
14.32,486.0
14.33,470.0
14.34,465.0
14.35,489.0
14.36,471.0
14.37,468.0
14.38,521.0
14.39,503.0
14.4,499.0
14.41,502.0
14.42,544.0
14.43,507.0
14.44,473.0
14.45,499.0
14.46,475.0
14.47,490.0
14.48,482.0
14.49,478.0
14.5,479.0
14.51,477.0
14.52,506.0
14.53,487.0
14.54,463.0
14.55,504.0
14.56,512.0
14.57,478.0
14.58,478.0
14.59,540.0
14.6,447.0
14.61,496.0
14.62,535.0
14.63,475.0
14.64,497.0
14.65,440.0
14.66,520.0
14.67,483.0
14.68,509.0
14.69,467.0
14.7,474.0
14.71,472.0
14.72,473.0
14.73,497.0
14.74,492.0
14.75,485.0
14.76,476.0
14.77,478.0
14.78,460.0
14.79,477.0
14.8,491.0
14.81,516.0
14.82,482.0
14.83,428.0
14.84,498.0
14.85,467.0
14.86,491.0
14.87,492.0
14.88,474.0
14.89,517.0
14.9,484.0
14.91,476.0
14.92,496.0
14.93,479.0
14.94,469.0
14.95,505.0
14.96,487.0
14.97,498.0
14.98,501.0
14.99,441.0
15.0,473.0
15.01,478.0
15.02,452.0
15.03,488.0
15.04,459.0
15.05,477.0
15.06,469.0
15.07,469.0
15.08,492.0
15.09,451.0
15.1,516.0
15.11,499.0
15.12,469.0
15.13,464.0
15.14,496.0
15.15,450.0
15.16,470.0
15.17,449.0
15.18,512.0
15.19,491.0
15.2,455.0
15.21,486.0
15.22,508.0
15.23,449.0
15.24,439.0
15.25,480.0
15.26,479.0
15.27,484.0
15.28,486.0
15.29,512.0
15.3,460.0
15.31,460.0
15.32,491.0
15.33,485.0
15.34,490.0
15.35,527.0
15.36,489.0
15.37,471.0
15.38,491.0
15.39,492.0
15.4,455.0
15.41,464.0
15.42,464.0
15.43,463.0
15.44,510.0
15.45,482.0
15.46,451.0
15.47,512.0
15.48,459.0
15.49,491.0
15.5,483.0
15.51,493.0
15.52,477.0
15.53,486.0
15.54,447.0
15.55,518.0
15.56,461.0
15.57,482.0
15.58,484.0
15.59,516.0
15.6,452.0
15.61,505.0
15.62,488.0
15.63,468.0
15.64,506.0
15.65,536.0
15.66,474.0
15.67,478.0
15.68,485.0
15.69,467.0
15.7,496.0
15.71,452.0
15.72,508.0
15.73,468.0
15.74,498.0
15.75,524.0
15.76,506.0
15.77,496.0
15.78,509.0
15.79,490.0
15.8,446.0
15.81,501.0
15.82,493.0
15.83,453.0
15.84,492.0
15.85,487.0
15.86,509.0
15.87,479.0
15.88,482.0
15.89,452.0
15.9,504.0
15.91,529.0
15.92,448.0
15.93,478.0
15.94,506.0
15.95,465.0
15.96,503.0
15.97,523.0
15.98,530.0
15.99,528.0
16.0,480.0
16.01,443.0
16.02,496.0
16.03,548.0
16.04,509.0
16.05,563.0
16.06,523.0
16.07,442.0
16.08,484.0
16.09,490.0
16.1,474.0
16.11,446.0
16.12,530.0
16.13,501.0
16.14,489.0
16.15,506.0
16.16,505.0
16.17,507.0
16.18,452.0
16.19,459.0
16.2,495.0
16.21,524.0
16.22,525.0
16.23,467.0
16.24,516.0
16.25,517.0
16.26,516.0
16.27,451.0
16.28,454.0
16.29,473.0
16.3,487.0
16.31,522.0
16.32,487.0
16.33,494.0
16.34,515.0
16.35,479.0
16.36,485.0
16.37,471.0
16.38,499.0
16.39,507.0
16.4,486.0
16.41,464.0
16.42,463.0
16.43,507.0
16.44,520.0
16.45,475.0
16.46,481.0
16.47,530.0
16.48,490.0
16.49,482.0
16.5,522.0
16.51,436.0
16.52,472.0
16.53,525.0
16.54,468.0
16.55,509.0
16.56,498.0
16.57,462.0
16.58,481.0
16.59,480.0
16.6,512.0
16.61,536.0
16.62,466.0
16.63,508.0
16.64,499.0
16.65,486.0
16.66,523.0
16.67,507.0
16.68,500.0
16.69,500.0
16.7,504.0
16.71,478.0
16.72,521.0
16.73,511.0
16.74,468.0
16.75,497.0
16.76,503.0
16.77,491.0
16.78,504.0
16.79,453.0
16.8,518.0
16.81,498.0
16.82,532.0
16.83,509.0
16.84,526.0
16.85,495.0
16.86,507.0
16.87,501.0
16.88,490.0
16.89,496.0
16.9,481.0
16.91,484.0
16.92,487.0
16.93,482.0
16.94,478.0
16.95,505.0
16.96,522.0
16.97,488.0
16.98,488.0
16.99,463.0
17.0,522.0
17.01,467.0
17.02,494.0
17.03,524.0
17.04,533.0
17.05,507.0
17.06,522.0
17.07,508.0
17.08,476.0
17.09,522.0
17.1,454.0
17.11,452.0
17.12,483.0
17.13,537.0
17.14,506.0
17.15,512.0
17.16,495.0
17.17,492.0
17.18,518.0
17.19,485.0
17.2,504.0
17.21,531.0
17.22,489.0
17.23,500.0
17.24,478.0
17.25,498.0
17.26,481.0
17.27,484.0
17.28,509.0
17.29,485.0
17.3,522.0
17.31,523.0
17.32,523.0
17.33,510.0
17.34,497.0
17.35,498.0
17.36,514.0
17.37,504.0
17.38,515.0
17.39,488.0
17.4,499.0
17.41,486.0
17.42,514.0
17.43,514.0
17.44,540.0
17.45,464.0
17.46,469.0
17.47,502.0
17.48,517.0
17.49,493.0
17.5,524.0
17.51,531.0
17.52,520.0
17.53,509.0
17.54,532.0
17.55,542.0
17.56,472.0
17.57,459.0
17.58,481.0
17.59,514.0
17.6,511.0
17.61,542.0
17.62,517.0
17.63,545.0
17.64,512.0
17.65,490.0
17.66,469.0
17.67,491.0
17.68,516.0
17.69,517.0
17.7,500.0
17.71,508.0
17.72,482.0
17.73,496.0
17.74,530.0
17.75,494.0
17.76,503.0
17.77,490.0
17.78,497.0
17.79,490.0
17.8,536.0
17.81,517.0
17.82,500.0
17.83,529.0
17.84,517.0
17.85,552.0
17.86,509.0
17.87,524.0
17.88,491.0
17.89,485.0
17.9,506.0
17.91,518.0
17.92,498.0
17.93,531.0
17.94,516.0
17.95,515.0
17.96,506.0
17.97,517.0
17.98,487.0
17.99,491.0
18.0,509.0
18.01,489.0
18.02,473.0
18.03,501.0
18.04,489.0
18.05,491.0
18.06,486.0
18.07,457.0
18.08,491.0
18.09,509.0
18.1,495.0
18.11,521.0
18.12,474.0
18.13,523.0
18.14,530.0
18.15,505.0
18.16,494.0
18.17,481.0
18.18,545.0
18.19,491.0
18.2,518.0
18.21,548.0
18.22,519.0
18.23,498.0
18.24,520.0
18.25,497.0
18.26,533.0
18.27,482.0
18.28,548.0
18.29,481.0
18.3,542.0
18.31,516.0
18.32,506.0
18.33,490.0
18.34,489.0
18.35,529.0
18.36,492.0
18.37,508.0
18.38,533.0
18.39,498.0
18.4,493.0
18.41,490.0
18.42,544.0
18.43,537.0
18.44,511.0
18.45,510.0
18.46,522.0
18.47,491.0
18.48,548.0
18.49,490.0
18.5,503.0
18.51,495.0
18.52,509.0
18.53,476.0
18.54,528.0
18.55,522.0
18.56,518.0
18.57,510.0
18.58,525.0
18.59,487.0
18.6,525.0
18.61,515.0
18.62,523.0
18.63,458.0
18.64,529.0
18.65,491.0
18.66,479.0
18.67,484.0
18.68,499.0
18.69,496.0
18.7,529.0
18.71,530.0
18.72,486.0
18.73,528.0
18.74,533.0
18.75,507.0
18.76,511.0
18.77,491.0
18.78,507.0
18.79,459.0
18.8,509.0
18.81,530.0
18.82,520.0
18.83,536.0
18.84,462.0
18.85,509.0
18.86,504.0
18.87,531.0
18.88,531.0
18.89,506.0
18.9,541.0
18.91,549.0
18.92,524.0
18.93,538.0
18.94,493.0
18.95,499.0
18.96,495.0
18.97,492.0
18.98,490.0
18.99,505.0
19.0,490.0
19.01,557.0
19.02,520.0
19.03,506.0
19.04,535.0
19.05,516.0
19.06,502.0
19.07,525.0
19.08,521.0
19.09,494.0
19.1,543.0
19.11,521.0
19.12,541.0
19.13,500.0
19.14,500.0
19.15,517.0
19.16,487.0
19.17,499.0
19.18,551.0
19.19,562.0
19.2,526.0
19.21,486.0
19.22,506.0
19.23,556.0
19.24,534.0
19.25,519.0
19.26,489.0
19.27,502.0
19.28,511.0
19.29,550.0
19.3,519.0
19.31,541.0
19.32,483.0
19.33,494.0
19.34,500.0
19.35,515.0
19.36,507.0
19.37,547.0
19.38,455.0
19.39,537.0
19.4,548.0
19.41,504.0
19.42,558.0
19.43,539.0
19.44,529.0
19.45,476.0
19.46,536.0
19.47,541.0
19.48,509.0
19.49,533.0
19.5,518.0
19.51,509.0
19.52,472.0
19.53,488.0
19.54,515.0
19.55,533.0
19.56,480.0
19.57,510.0
19.58,494.0
19.59,497.0
19.6,522.0
19.61,493.0
19.62,521.0
19.63,491.0
19.64,494.0
19.65,472.0
19.66,474.0
19.67,491.0
19.68,524.0
19.69,539.0
19.7,497.0
19.71,511.0
19.72,484.0
19.73,487.0
19.74,497.0
19.75,489.0
19.76,508.0
19.77,480.0
19.78,544.0
19.79,475.0
19.8,481.0
19.81,526.0
19.82,524.0
19.83,496.0
19.84,524.0
19.85,527.0
19.86,530.0
19.87,552.0
19.88,473.0
19.89,546.0
19.9,539.0
19.91,500.0
19.92,563.0
19.93,493.0
19.94,513.0
19.95,505.0
19.96,517.0
19.97,481.0
19.98,485.0
19.99,519.0
20.0,529.0
20.01,508.0
20.02,500.0
20.03,501.0
20.04,516.0
20.05,541.0
20.06,507.0
20.07,506.0
20.08,487.0
20.09,513.0
20.1,544.0
20.11,537.0
20.12,516.0
20.13,559.0
20.14,552.0
20.15,541.0
20.16,491.0
20.17,492.0
20.18,529.0
20.19,550.0
20.2,519.0
20.21,534.0
20.22,505.0
20.23,489.0
20.24,498.0
20.25,512.0
20.26,520.0
20.27,544.0
20.28,523.0
20.29,565.0
20.3,463.0
20.31,527.0
20.32,511.0
20.33,493.0
20.34,557.0
20.35,485.0
20.36,495.0
20.37,525.0
20.38,478.0
20.39,518.0
20.4,514.0
20.41,497.0
20.42,539.0
20.43,499.0
20.44,553.0
20.45,507.0
20.46,520.0
20.47,508.0
20.48,509.0
20.49,541.0
20.5,504.0
20.51,508.0
20.52,489.0
20.53,495.0
20.54,536.0
20.55,509.0
20.56,503.0
20.57,528.0
20.58,469.0
20.59,511.0
20.6,533.0
20.61,506.0
20.62,503.0
20.63,525.0
20.64,542.0
20.65,524.0
20.66,561.0
20.67,569.0
20.68,475.0
20.69,528.0
20.7,470.0
20.71,499.0
20.72,512.0
20.73,515.0
20.74,517.0
20.75,504.0
20.76,485.0
20.77,534.0
20.78,519.0
20.79,549.0
20.8,553.0
20.81,540.0
20.82,528.0
20.83,514.0
20.84,513.0
20.85,513.0
20.86,504.0
20.87,513.0
20.88,507.0
20.89,550.0
20.9,517.0
20.91,537.0
20.92,494.0
20.93,514.0
20.94,489.0
20.95,503.0
20.96,486.0
20.97,512.0
20.98,486.0
20.99,543.0
21.0,514.0
21.01,538.0
21.02,506.0
21.03,545.0
21.04,534.0
21.05,569.0
21.06,515.0
21.07,502.0
21.08,507.0
21.09,527.0
21.1,517.0
21.11,546.0
21.12,498.0
21.13,504.0
21.14,541.0
21.15,482.0
21.16,514.0
21.17,540.0
21.18,533.0
21.19,525.0
21.2,488.0
21.21,497.0
21.22,522.0
21.23,503.0
21.24,537.0
21.25,567.0
21.26,514.0
21.27,516.0
21.28,531.0
21.29,528.0
21.3,503.0
21.31,519.0
21.32,527.0
21.33,489.0
21.34,546.0
21.35,530.0
21.36,509.0
21.37,530.0
21.38,506.0
21.39,552.0
21.4,544.0
21.41,523.0
21.42,515.0
21.43,514.0
21.44,497.0
21.45,499.0
21.46,519.0
21.47,495.0
21.48,526.0
21.49,545.0
21.5,527.0
21.51,511.0
21.52,613.0
21.53,542.0
21.54,544.0
21.55,509.0
21.56,541.0
21.57,553.0
21.58,540.0
21.59,521.0
21.6,536.0
21.61,515.0
21.62,524.0
21.63,545.0
21.64,498.0
21.65,516.0
21.66,540.0
21.67,505.0
21.68,519.0
21.69,494.0
21.7,527.0
21.71,501.0
21.72,550.0
21.73,539.0
21.74,520.0
21.75,533.0
21.76,521.0
21.77,562.0
21.78,505.0
21.79,534.0
21.8,531.0
21.81,534.0
21.82,573.0
21.83,499.0
21.84,505.0
21.85,539.0
21.86,486.0
21.87,549.0
21.88,503.0
21.89,562.0
21.9,512.0
21.91,566.0
21.92,524.0
21.93,542.0
21.94,517.0
21.95,535.0
21.96,507.0
21.97,510.0
21.98,476.0
21.99,523.0
22.0,483.0
22.01,518.0
22.02,554.0
22.03,497.0
22.04,525.0
22.05,535.0
22.06,513.0
22.07,532.0
22.08,504.0
22.09,551.0
22.1,517.0
22.11,508.0
22.12,512.0
22.13,558.0
22.14,525.0
22.15,489.0
22.16,552.0
22.17,495.0
22.18,508.0
22.19,504.0
22.2,484.0
22.21,521.0
22.22,520.0
22.23,528.0
22.24,528.0
22.25,492.0
22.26,552.0
22.27,509.0
22.28,496.0
22.29,531.0
22.3,555.0
22.31,501.0
22.32,530.0
22.33,563.0
22.34,492.0
22.35,525.0
22.36,523.0
22.37,541.0
22.38,560.0
22.39,505.0
22.4,498.0
22.41,533.0
22.42,509.0
22.43,549.0
22.44,518.0
22.45,534.0
22.46,508.0
22.47,523.0
22.48,542.0
22.49,551.0
22.5,452.0
22.51,502.0
22.52,511.0
22.53,541.0
22.54,490.0
22.55,512.0
22.56,552.0
22.57,520.0
22.58,526.0
22.59,540.0
22.6,512.0
22.61,510.0
22.62,537.0
22.63,486.0
22.64,557.0
22.65,543.0
22.66,483.0
22.67,566.0
22.68,531.0
22.69,531.0
22.7,491.0
22.71,487.0
22.72,521.0
22.73,502.0
22.74,474.0
22.75,551.0
22.76,530.0
22.77,523.0
22.78,534.0
22.79,523.0
22.8,566.0
22.81,519.0
22.82,502.0
22.83,549.0
22.84,546.0
22.85,506.0
22.86,532.0
22.87,483.0
22.88,524.0
22.89,535.0
22.9,529.0
22.91,506.0
22.92,558.0
22.93,470.0
22.94,506.0
22.95,546.0
22.96,532.0
22.97,524.0
22.98,468.0
22.99,546.0
23.0,536.0
23.01,529.0
23.02,488.0
23.03,517.0
23.04,558.0
23.05,509.0
23.06,516.0
23.07,503.0
23.08,487.0
23.09,549.0
23.1,558.0
23.11,509.0
23.12,518.0
23.13,522.0
23.14,510.0
23.15,557.0
23.16,543.0
23.17,531.0
23.18,500.0
23.19,518.0
23.2,499.0
23.21,515.0
23.22,550.0
23.23,545.0
23.24,521.0
23.25,508.0
23.26,544.0
23.27,489.0
23.28,523.0
23.29,499.0
23.3,528.0
23.31,513.0
23.32,502.0
23.33,540.0
23.34,508.0
23.35,548.0
23.36,525.0
23.37,509.0
23.38,524.0
23.39,491.0
23.4,502.0
23.41,545.0
23.42,492.0
23.43,567.0
23.44,526.0
23.45,553.0
23.46,528.0
23.47,502.0
23.48,511.0
23.49,572.0
23.5,496.0
23.51,537.0
23.52,455.0
23.53,521.0
23.54,529.0
23.55,521.0
23.56,517.0
23.57,533.0
23.58,518.0
23.59,528.0
23.6,508.0
23.61,515.0
23.62,516.0
23.63,574.0
23.64,529.0
23.65,499.0
23.66,512.0
23.67,522.0
23.68,516.0
23.69,544.0
23.7,504.0
23.71,532.0
23.72,509.0
23.73,525.0
23.74,513.0
23.75,552.0
23.76,519.0
23.77,492.0
23.78,526.0
23.79,550.0
23.8,520.0
23.81,534.0
23.82,532.0
23.83,527.0
23.84,533.0
23.85,571.0
23.86,539.0
23.87,532.0
23.88,521.0
23.89,514.0
23.9,532.0
23.91,530.0
23.92,552.0
23.93,559.0
23.94,495.0
23.95,527.0
23.96,521.0
23.97,532.0
23.98,545.0
23.99,518.0
24.0,545.0
24.01,509.0
24.02,574.0
24.03,553.0
24.04,486.0
24.05,556.0
24.06,533.0
24.07,526.0
24.08,548.0
24.09,560.0
24.1,570.0
24.11,547.0
24.12,567.0
24.13,570.0
24.14,552.0
24.15,562.0
24.16,588.0
24.17,591.0
24.18,629.0
24.19,643.0
24.2,686.0
24.21,725.0
24.22,761.0
24.23,787.0
24.24,847.0
24.25,823.0
24.26,952.0
24.27,1002.0
24.28,911.0
24.29,950.0
24.3,908.0
24.31,933.0
24.32,858.0
24.33,822.0
24.34,887.0
24.35,789.0
24.36,737.0
24.37,693.0
24.38,641.0
24.39,644.0
24.4,677.0
24.41,644.0
24.42,589.0
24.43,583.0
24.44,579.0
24.45,583.0
24.46,569.0
24.47,551.0
24.48,522.0
24.49,560.0
24.5,575.0
24.51,549.0
24.52,551.0
24.53,572.0
24.54,564.0
24.55,557.0
24.56,543.0
24.57,591.0
24.58,509.0
24.59,557.0
24.6,570.0
24.61,520.0
24.62,545.0
24.63,516.0
24.64,519.0
24.65,509.0
24.66,509.0
24.67,525.0
24.68,495.0
24.69,552.0
24.7,538.0
24.71,523.0
24.72,528.0
24.73,549.0
24.74,508.0
24.75,517.0
24.76,578.0
24.77,493.0
24.78,528.0
24.79,526.0
24.8,558.0
24.81,525.0
24.82,537.0
24.83,535.0
24.84,486.0
24.85,500.0
24.86,522.0
24.87,536.0
24.88,557.0
24.89,552.0
24.9,550.0
24.91,528.0
24.92,491.0
24.93,518.0
24.94,546.0
24.95,520.0
24.96,557.0
24.97,549.0
24.98,606.0
24.99,539.0
25.0,503.0
25.01,532.0
25.02,517.0
25.03,559.0
25.04,539.0
25.05,541.0
25.06,477.0
25.07,516.0
25.08,499.0
25.09,513.0
25.1,512.0
25.11,488.0
25.12,534.0
25.13,502.0
25.14,530.0
25.15,554.0
25.16,526.0
25.17,522.0
25.18,523.0
25.19,502.0
25.2,559.0
25.21,578.0
25.22,518.0
25.23,504.0
25.24,528.0
25.25,539.0
25.26,530.0
25.27,510.0
25.28,509.0
25.29,530.0
25.3,498.0
25.31,477.0
25.32,511.0
25.33,507.0
25.34,505.0
25.35,472.0
25.36,524.0
25.37,554.0
25.38,493.0
25.39,481.0
25.4,532.0
25.41,544.0
25.42,552.0
25.43,532.0
25.44,510.0
25.45,523.0
25.46,505.0
25.47,496.0
25.48,527.0
25.49,546.0
25.5,508.0
25.51,499.0
25.52,505.0
25.53,512.0
25.54,530.0
25.55,529.0
25.56,539.0
25.57,514.0
25.58,509.0
25.59,511.0
25.6,555.0
25.61,527.0
25.62,497.0
25.63,547.0
25.64,550.0
25.65,515.0
25.66,497.0
25.67,517.0
25.68,527.0
25.69,530.0
25.7,529.0
25.71,509.0
25.72,539.0
25.73,505.0
25.74,537.0
25.75,530.0
25.76,510.0
25.77,515.0
25.78,495.0
25.79,537.0
25.8,505.0
25.81,527.0
25.82,519.0
25.83,514.0
25.84,525.0
25.85,591.0
25.86,483.0
25.87,505.0
25.88,552.0
25.89,547.0
25.9,476.0
25.91,516.0
25.92,523.0
25.93,509.0
25.94,588.0
25.95,458.0
25.96,518.0
25.97,523.0
25.98,553.0
25.99,555.0
26.0,553.0
26.01,524.0
26.02,506.0
26.03,530.0
26.04,518.0
26.05,514.0
26.06,532.0
26.07,514.0
26.08,450.0
26.09,544.0
26.1,510.0
26.11,531.0
26.12,515.0
26.13,565.0
26.14,512.0
26.15,492.0
26.16,522.0
26.17,528.0
26.18,507.0
26.19,527.0
26.2,537.0
26.21,532.0
26.22,507.0
26.23,513.0
26.24,504.0
26.25,551.0
26.26,542.0
26.27,545.0
26.28,479.0
26.29,525.0
26.3,519.0
26.31,525.0
26.32,513.0
26.33,523.0
26.34,506.0
26.35,518.0
26.36,511.0
26.37,498.0
26.38,554.0
26.39,508.0
26.4,513.0
26.41,542.0
26.42,546.0
26.43,552.0
26.44,560.0
26.45,514.0
26.46,546.0
26.47,509.0
26.48,499.0
26.49,555.0
26.5,510.0
26.51,569.0
26.52,540.0
26.53,541.0
26.54,525.0
26.55,542.0
26.56,483.0
26.57,470.0
26.58,547.0
26.59,535.0
26.6,512.0
26.61,520.0
26.62,526.0
26.63,514.0
26.64,499.0
26.65,542.0
26.66,503.0
26.67,457.0
26.68,534.0
26.69,536.0
26.7,505.0
26.71,524.0
26.72,512.0
26.73,520.0
26.74,519.0
26.75,507.0
26.76,501.0
26.77,535.0
26.78,545.0
26.79,557.0
26.8,536.0
26.81,526.0
26.82,511.0
26.83,537.0
26.84,519.0
26.85,533.0
26.86,523.0
26.87,528.0
26.88,531.0
26.89,560.0
26.9,517.0
26.91,557.0
26.92,521.0
26.93,545.0
26.94,533.0
26.95,519.0
26.96,528.0
26.97,508.0
26.98,552.0
26.99,529.0
27.0,534.0
27.01,526.0
27.02,541.0
27.03,534.0
27.04,525.0
27.05,559.0
27.06,539.0
27.07,551.0
27.08,519.0
27.09,522.0
27.1,491.0
27.11,519.0
27.12,555.0
27.13,549.0
27.14,537.0
27.15,508.0
27.16,546.0
27.17,511.0
27.18,509.0
27.19,517.0
27.2,508.0
27.21,569.0
27.22,543.0
27.23,496.0
27.24,485.0
27.25,513.0
27.26,468.0
27.27,445.0
27.28,491.0
27.29,537.0
27.3,512.0
27.31,505.0
27.32,515.0
27.33,531.0
27.34,583.0
27.35,515.0
27.36,560.0
27.37,518.0
27.38,483.0
27.39,537.0
27.4,520.0
27.41,532.0
27.42,499.0
27.43,534.0
27.44,521.0
27.45,533.0
27.46,523.0
27.47,553.0
27.48,512.0
27.49,493.0
27.5,507.0
27.51,533.0
27.52,513.0
27.53,545.0
27.54,541.0
27.55,520.0
27.56,535.0
27.57,523.0
27.58,534.0
27.59,532.0
27.6,479.0
27.61,555.0
27.62,492.0
27.63,471.0
27.64,462.0
27.65,555.0
27.66,536.0
27.67,505.0
27.68,511.0
27.69,505.0
27.7,547.0
27.71,551.0
27.72,523.0
27.73,495.0
27.74,506.0
27.75,457.0
27.76,542.0
27.77,508.0
27.78,507.0
27.79,542.0
27.8,506.0
27.81,510.0
27.82,476.0
27.83,541.0
27.84,546.0
27.85,532.0
27.86,567.0
27.87,487.0
27.88,539.0
27.89,524.0
27.9,532.0
27.91,523.0
27.92,519.0
27.93,560.0
27.94,550.0
27.95,479.0
27.96,500.0
27.97,541.0
27.98,502.0
27.99,538.0
28.0,528.0
28.01,547.0
28.02,515.0
28.03,522.0
28.04,558.0
28.05,570.0
28.06,519.0
28.07,540.0
28.08,543.0
28.09,530.0
28.1,524.0
28.11,517.0
28.12,541.0
28.13,520.0
28.14,571.0
28.15,511.0
28.16,507.0
28.17,554.0
28.18,567.0
28.19,538.0
28.2,529.0
28.21,560.0
28.22,505.0
28.23,592.0
28.24,531.0
28.25,623.0
28.26,598.0
28.27,616.0
28.28,626.0
28.29,675.0
28.3,622.0
28.31,661.0
28.32,625.0
28.33,575.0
28.34,603.0
28.35,561.0
28.36,550.0
28.37,578.0
28.38,498.0
28.39,511.0
28.4,558.0
28.41,530.0
28.42,576.0
28.43,523.0
28.44,526.0
28.45,573.0
28.46,503.0
28.47,510.0
28.48,552.0
28.49,522.0
28.5,541.0
28.51,494.0
28.52,550.0
28.53,534.0
28.54,509.0
28.55,503.0
28.56,532.0
28.57,541.0
28.58,549.0
28.59,512.0
28.6,552.0
28.61,515.0
28.62,546.0
28.63,539.0
28.64,502.0
28.65,523.0
28.66,541.0
28.67,580.0
28.68,549.0
28.69,529.0
28.7,551.0
28.71,572.0
28.72,518.0
28.73,534.0
28.74,546.0
28.75,551.0
28.76,487.0
28.77,534.0
28.78,562.0
28.79,538.0
28.8,531.0
28.81,537.0
28.82,524.0
28.83,496.0
28.84,568.0
28.85,531.0
28.86,523.0
28.87,521.0
28.88,547.0
28.89,513.0
28.9,565.0
28.91,564.0
28.92,515.0
28.93,511.0
28.94,493.0
28.95,491.0
28.96,516.0
28.97,522.0
28.98,559.0
28.99,508.0
29.0,476.0
29.01,544.0
29.02,553.0
29.03,515.0
29.04,529.0
29.05,530.0
29.06,510.0
29.07,539.0
29.08,527.0
29.09,534.0
29.1,493.0
29.11,557.0
29.12,497.0
29.13,548.0
29.14,537.0
29.15,546.0
29.16,560.0
29.17,542.0
29.18,546.0
29.19,520.0
29.2,497.0
29.21,550.0
29.22,518.0
29.23,500.0
29.24,529.0
29.25,517.0
29.26,528.0
29.27,501.0
29.28,517.0
29.29,512.0
29.3,520.0
29.31,506.0
29.32,514.0
29.33,526.0
29.34,497.0
29.35,530.0
29.36,543.0
29.37,537.0
29.38,521.0
29.39,533.0
29.4,574.0
29.41,522.0
29.42,538.0
29.43,535.0
29.44,526.0
29.45,493.0
29.46,490.0
29.47,538.0
29.48,508.0
29.49,546.0
29.5,517.0
29.51,521.0
29.52,539.0
29.53,584.0
29.54,528.0
29.55,560.0
29.56,505.0
29.57,506.0
29.58,527.0
29.59,510.0
29.6,499.0
29.61,543.0
29.62,518.0
29.63,510.0
29.64,559.0
29.65,504.0
29.66,508.0
29.67,510.0
29.68,523.0
29.69,553.0
29.7,494.0
29.71,539.0
29.72,536.0
29.73,514.0
29.74,559.0
29.75,513.0
29.76,533.0
29.77,521.0
29.78,525.0
29.79,518.0
29.8,549.0
29.81,524.0
29.82,513.0
29.83,557.0
29.84,515.0
29.85,524.0
29.86,523.0
29.87,488.0
29.88,518.0
29.89,563.0
29.9,528.0
29.91,549.0
29.92,538.0
29.93,558.0
29.94,517.0
29.95,514.0
29.96,531.0
29.97,517.0
29.98,548.0
29.99,549.0
30.0,528.0
30.01,535.0
30.02,549.0
30.03,477.0
30.04,536.0
30.05,551.0
30.06,499.0
30.07,517.0
30.08,523.0
30.09,519.0
30.1,530.0
30.11,507.0
30.12,543.0
30.13,512.0
30.14,528.0
30.15,538.0
30.16,542.0
30.17,530.0
30.18,541.0
30.19,550.0
30.2,500.0
30.21,486.0
30.22,513.0
30.23,538.0
30.24,511.0
30.25,506.0
30.26,541.0
30.27,559.0
30.28,583.0
30.29,584.0
30.3,510.0
30.31,564.0
30.32,501.0
30.33,502.0
30.34,535.0
30.35,560.0
30.36,575.0
30.37,542.0
30.38,575.0
30.39,497.0
30.4,561.0
30.41,511.0
30.42,573.0
30.43,576.0
30.44,539.0
30.45,544.0
30.46,543.0
30.47,535.0
30.48,542.0
30.49,581.0
30.5,557.0
30.51,504.0
30.52,509.0
30.53,503.0
30.54,524.0
30.55,511.0
30.56,541.0
30.57,519.0
30.58,559.0
30.59,552.0
30.6,569.0
30.61,569.0
30.62,568.0
30.63,541.0
30.64,552.0
30.65,520.0
30.66,525.0
30.67,549.0
30.68,551.0
30.69,545.0
30.7,573.0
30.71,585.0
30.72,582.0
30.73,553.0
30.74,558.0
30.75,556.0
30.76,558.0
30.77,576.0
30.78,529.0
30.79,543.0
30.8,557.0
30.81,545.0
30.82,575.0
30.83,613.0
30.84,555.0
30.85,576.0
30.86,590.0
30.87,575.0
30.88,550.0
30.89,572.0
30.9,568.0
30.91,550.0
30.92,540.0
30.93,589.0
30.94,588.0
30.95,590.0
30.96,593.0
30.97,592.0
30.98,608.0
30.99,570.0
31.0,602.0
31.01,575.0
31.02,577.0
31.03,598.0
31.04,659.0
31.05,571.0
31.06,633.0
31.07,596.0
31.08,609.0
31.09,628.0
31.1,605.0
31.11,701.0
31.12,678.0
31.13,647.0
31.14,689.0
31.15,675.0
31.16,709.0
31.17,676.0
31.18,697.0
31.19,741.0
31.2,782.0
31.21,745.0
31.22,799.0
31.23,778.0
31.24,855.0
31.25,909.0
31.26,914.0
31.27,1012.0
31.28,1070.0
31.29,1157.0
31.3,1256.0
31.31,1454.0
31.32,1755.0
31.33,2015.0
31.34,2464.0
31.35,2868.0
31.36,3495.0
31.37,4117.0
31.38,4893.0
31.39,5732.0
31.4,6279.0
31.41,6200.0
31.42,6003.0
31.43,5425.0
31.44,4637.0
31.45,4206.0
31.46,3900.0
31.47,3829.0
31.48,3883.0
31.49,3704.0
31.5,3330.0
31.51,2805.0
31.52,2298.0
31.53,1775.0
31.54,1503.0
31.55,1282.0
31.56,1158.0
31.57,1054.0
31.58,983.0
31.59,926.0
31.6,867.0
31.61,845.0
31.62,785.0
31.63,792.0
31.64,757.0
31.65,708.0
31.66,719.0
31.67,681.0
31.68,689.0
31.69,635.0
31.7,638.0
31.71,641.0
31.72,691.0
31.73,636.0
31.74,614.0
31.75,629.0
31.76,617.0
31.77,591.0
31.78,627.0
31.79,618.0
31.8,581.0
31.81,617.0
31.82,601.0
31.83,604.0
31.84,605.0
31.85,597.0
31.86,555.0
31.87,587.0
31.88,603.0
31.89,573.0
31.9,583.0
31.91,572.0
31.92,558.0
31.93,550.0
31.94,577.0
31.95,534.0
31.96,571.0
31.97,523.0
31.98,544.0
31.99,588.0
32.0,550.0
32.01,554.0
32.02,537.0
32.03,583.0
32.04,555.0
32.05,528.0
32.06,564.0
32.07,555.0
32.08,535.0
32.09,577.0
32.1,586.0
32.11,533.0
32.12,532.0
32.13,594.0
32.14,599.0
32.15,559.0
32.16,583.0
32.17,576.0
32.18,517.0
32.19,521.0
32.2,498.0
32.21,546.0
32.22,568.0
32.23,519.0
32.24,618.0
32.25,554.0
32.26,527.0
32.27,568.0
32.28,563.0
32.29,544.0
32.3,526.0
32.31,579.0
32.32,530.0
32.33,532.0
32.34,530.0
32.35,503.0
32.36,552.0
32.37,511.0
32.38,535.0
32.39,532.0
32.4,556.0
32.41,572.0
32.42,513.0
32.43,544.0
32.44,557.0
32.45,523.0
32.46,517.0
32.47,486.0
32.48,566.0
32.49,543.0
32.5,548.0
32.51,560.0
32.52,568.0
32.53,548.0
32.54,559.0
32.55,545.0
32.56,573.0
32.57,534.0
32.58,573.0
32.59,555.0
32.6,520.0
32.61,557.0
32.62,548.0
32.63,561.0
32.64,559.0
32.65,568.0
32.66,524.0
32.67,560.0
32.68,518.0
32.69,553.0
32.7,526.0
32.71,541.0
32.72,513.0
32.73,556.0
32.74,525.0
32.75,529.0
32.76,524.0
32.77,494.0
32.78,519.0
32.79,524.0
32.8,551.0
32.81,509.0
32.82,532.0
32.83,546.0
32.84,530.0
32.85,560.0
32.86,531.0
32.87,525.0
32.88,523.0
32.89,526.0
32.9,519.0
32.91,490.0
32.92,541.0
32.93,524.0
32.94,542.0
32.95,520.0
32.96,516.0
32.97,561.0
32.98,545.0
32.99,547.0
33.0,564.0
33.01,541.0
33.02,578.0
33.03,556.0
33.04,524.0
33.05,510.0
33.06,534.0
33.07,510.0
33.08,495.0
33.09,528.0
33.1,526.0
33.11,535.0
33.12,541.0
33.13,548.0
33.14,555.0
33.15,540.0
33.16,546.0
33.17,538.0
33.18,559.0
33.19,557.0
33.2,535.0
33.21,484.0
33.22,542.0
33.23,502.0
33.24,550.0
33.25,541.0
33.26,524.0
33.27,579.0
33.28,559.0
33.29,555.0
33.3,525.0
33.31,515.0
33.32,560.0
33.33,530.0
33.34,506.0
33.35,543.0
33.36,548.0
33.37,582.0
33.38,583.0
33.39,520.0
33.4,519.0
33.41,524.0
33.42,537.0
33.43,530.0
33.44,553.0
33.45,539.0
33.46,527.0
33.47,545.0
33.48,583.0
33.49,566.0
33.5,568.0
33.51,536.0
33.52,515.0
33.53,517.0
33.54,497.0
33.55,580.0
33.56,512.0
33.57,579.0
33.58,540.0
33.59,544.0
33.6,520.0
33.61,520.0
33.62,543.0
33.63,504.0
33.64,510.0
33.65,525.0
33.66,520.0
33.67,564.0
33.68,531.0
33.69,530.0
33.7,522.0
33.71,510.0
33.72,511.0
33.73,532.0
33.74,562.0
33.75,541.0
33.76,484.0
33.77,495.0
33.78,500.0
33.79,541.0
33.8,569.0
33.81,574.0
33.82,539.0
33.83,537.0
33.84,522.0
33.85,498.0
33.86,567.0
33.87,533.0
33.88,563.0
33.89,535.0
33.9,523.0
33.91,539.0
33.92,539.0
33.93,551.0
33.94,539.0
33.95,538.0
33.96,508.0
33.97,541.0
33.98,515.0
33.99,540.0
34.0,493.0
34.01,568.0
34.02,542.0
34.03,497.0
34.04,525.0
34.05,546.0
34.06,529.0
34.07,553.0
34.08,497.0
34.09,556.0
34.1,544.0
34.11,555.0
34.12,574.0
34.13,549.0
34.14,523.0
34.15,543.0
34.16,537.0
34.17,525.0
34.18,562.0
34.19,552.0
34.2,538.0
34.21,542.0
34.22,549.0
34.23,565.0
34.24,542.0
34.25,557.0
34.26,559.0
34.27,539.0
34.28,557.0
34.29,535.0
34.3,551.0
34.31,585.0
34.32,602.0
34.33,567.0
34.34,562.0
34.35,551.0
34.36,527.0
34.37,512.0
34.38,567.0
34.39,571.0
34.4,564.0
34.41,583.0
34.42,587.0
34.43,524.0
34.44,577.0
34.45,521.0
34.46,534.0
34.47,525.0
34.48,580.0
34.49,528.0
34.5,532.0
34.51,529.0
34.52,523.0
34.53,522.0
34.54,517.0
34.55,508.0
34.56,563.0
34.57,520.0
34.58,548.0
34.59,532.0
34.6,511.0
34.61,493.0
34.62,593.0
34.63,547.0
34.64,509.0
34.65,526.0
34.66,530.0
34.67,558.0
34.68,544.0
34.69,536.0
34.7,528.0
34.71,525.0
34.72,504.0
34.73,574.0
34.74,557.0
34.75,582.0
34.76,543.0
34.77,554.0
34.78,557.0
34.79,533.0
34.8,548.0
34.81,539.0
34.82,534.0
34.83,528.0
34.84,561.0
34.85,523.0
34.86,546.0
34.87,553.0
34.88,517.0
34.89,521.0
34.9,561.0
34.91,529.0
34.92,516.0
34.93,567.0
34.94,519.0
34.95,537.0
34.96,508.0
34.97,570.0
34.98,512.0
34.99,504.0
35.0,530.0
35.01,505.0
35.02,500.0
35.03,530.0
35.04,475.0
35.05,513.0
35.06,525.0
35.07,508.0
35.08,529.0
35.09,540.0
35.1,552.0
35.11,534.0
35.12,495.0
35.13,561.0
35.14,511.0
35.15,592.0
35.16,554.0
35.17,587.0
35.18,586.0
35.19,574.0
35.2,574.0
35.21,569.0
35.22,528.0
35.23,589.0
35.24,532.0
35.25,579.0
35.26,569.0
35.27,553.0
35.28,549.0
35.29,500.0
35.3,525.0
35.31,532.0
35.32,553.0
35.33,507.0
35.34,501.0
35.35,555.0
35.36,508.0
35.37,517.0
35.38,553.0
35.39,506.0
35.4,569.0
35.41,575.0
35.42,576.0
35.43,555.0
35.44,517.0
35.45,534.0
35.46,556.0
35.47,549.0
35.48,533.0
35.49,486.0
35.5,560.0
35.51,525.0
35.52,561.0
35.53,505.0
35.54,479.0
35.55,520.0
35.56,517.0
35.57,537.0
35.58,574.0
35.59,523.0
35.6,565.0
35.61,541.0
35.62,533.0
35.63,530.0
35.64,553.0
35.65,505.0
35.66,505.0
35.67,574.0
35.68,524.0
35.69,557.0
35.7,526.0
35.71,559.0
35.72,497.0
35.73,508.0
35.74,514.0
35.75,561.0
35.76,510.0
35.77,507.0
35.78,549.0
35.79,546.0
35.8,535.0
35.81,507.0
35.82,566.0
35.83,515.0
35.84,502.0
35.85,567.0
35.86,548.0
35.87,561.0
35.88,511.0
35.89,515.0
35.9,582.0
35.91,508.0
35.92,539.0
35.93,527.0
35.94,545.0
35.95,553.0
35.96,547.0
35.97,509.0
35.98,547.0
35.99,562.0
36.0,527.0
36.01,500.0
36.02,498.0
36.03,523.0
36.04,565.0
36.05,524.0
36.06,533.0
36.07,540.0
36.08,549.0
36.09,551.0
36.1,526.0
36.11,516.0
36.12,550.0
36.13,534.0
36.14,527.0
36.15,524.0
36.16,559.0
36.17,583.0
36.18,515.0
36.19,518.0
36.2,533.0
36.21,549.0
36.22,513.0
36.23,521.0
36.24,548.0
36.25,485.0
36.26,574.0
36.27,533.0
36.28,493.0
36.29,545.0
36.3,528.0
36.31,526.0
36.32,517.0
36.33,528.0
36.34,521.0
36.35,507.0
36.36,507.0
36.37,532.0
36.38,551.0
36.39,544.0
36.4,565.0
36.41,543.0
36.42,515.0
36.43,491.0
36.44,553.0
36.45,498.0
36.46,576.0
36.47,533.0
36.48,546.0
36.49,611.0
36.5,528.0
36.51,526.0
36.52,556.0
36.53,541.0
36.54,544.0
36.55,550.0
36.56,519.0
36.57,526.0
36.58,513.0
36.59,545.0
36.6,546.0
36.61,520.0
36.62,505.0
36.63,510.0
36.64,549.0
36.65,557.0
36.66,538.0
36.67,534.0
36.68,521.0
36.69,509.0
36.7,592.0
36.71,520.0
36.72,537.0
36.73,578.0
36.74,538.0
36.75,563.0
36.76,547.0
36.77,545.0
36.78,539.0
36.79,521.0
36.8,534.0
36.81,535.0
36.82,556.0
36.83,546.0
36.84,533.0
36.85,544.0
36.86,541.0
36.87,515.0
36.88,518.0
36.89,558.0
36.9,539.0
36.91,580.0
36.92,526.0
36.93,531.0
36.94,496.0
36.95,554.0
36.96,563.0
36.97,521.0
36.98,528.0
36.99,513.0
37.0,567.0
37.01,504.0
37.02,533.0
37.03,531.0
37.04,520.0
37.05,577.0
37.06,570.0
37.07,523.0
37.08,562.0
37.09,562.0
37.1,527.0
37.11,532.0
37.12,572.0
37.13,564.0
37.14,569.0
37.15,543.0
37.16,515.0
37.17,557.0
37.18,541.0
37.19,520.0
37.2,544.0
37.21,530.0
37.22,543.0
37.23,596.0
37.24,544.0
37.25,566.0
37.26,528.0
37.27,568.0
37.28,554.0
37.29,540.0
37.3,582.0
37.31,556.0
37.32,574.0
37.33,556.0
37.34,564.0
37.35,546.0
37.36,554.0
37.37,563.0
37.38,568.0
37.39,544.0
37.4,557.0
37.41,603.0
37.42,549.0
37.43,560.0
37.44,557.0
37.45,502.0
37.46,541.0
37.47,551.0
37.48,554.0
37.49,577.0
37.5,562.0
37.51,585.0
37.52,601.0
37.53,572.0
37.54,606.0
37.55,655.0
37.56,695.0
37.57,709.0
37.58,685.0
37.59,780.0
37.6,800.0
37.61,814.0
37.62,804.0
37.63,748.0
37.64,746.0
37.65,734.0
37.66,724.0
37.67,751.0
37.68,720.0
37.69,714.0
37.7,699.0
37.71,689.0
37.72,718.0
37.73,694.0
37.74,659.0
37.75,643.0
37.76,637.0
37.77,576.0
37.78,583.0
37.79,615.0
37.8,590.0
37.81,602.0
37.82,599.0
37.83,553.0
37.84,535.0
37.85,597.0
37.86,570.0
37.87,539.0
37.88,551.0
37.89,576.0
37.9,565.0
37.91,529.0
37.92,529.0
37.93,538.0
37.94,508.0
37.95,574.0
37.96,564.0
37.97,552.0
37.98,559.0
37.99,522.0
38.0,576.0
38.01,545.0
38.02,504.0
38.03,582.0
38.04,540.0
38.05,514.0
38.06,539.0
38.07,527.0
38.08,544.0
38.09,593.0
38.1,506.0
38.11,518.0
38.12,548.0
38.13,526.0
38.14,551.0
38.15,518.0
38.16,550.0
38.17,515.0
38.18,547.0
38.19,552.0
38.2,521.0
38.21,502.0
38.22,544.0
38.23,553.0
38.24,535.0
38.25,539.0
38.26,526.0
38.27,592.0
38.28,503.0
38.29,495.0
38.3,567.0
38.31,530.0
38.32,565.0
38.33,541.0
38.34,534.0
38.35,520.0
38.36,515.0
38.37,537.0
38.38,520.0
38.39,513.0
38.4,522.0
38.41,478.0
38.42,557.0
38.43,547.0
38.44,522.0
38.45,576.0
38.46,519.0
38.47,491.0
38.48,530.0
38.49,550.0
38.5,565.0
38.51,544.0
38.52,503.0
38.53,531.0
38.54,541.0
38.55,528.0
38.56,533.0
38.57,536.0
38.58,533.0
38.59,544.0
38.6,545.0
38.61,525.0
38.62,560.0
38.63,511.0
38.64,517.0
38.65,540.0
38.66,527.0
38.67,516.0
38.68,496.0
38.69,497.0
38.7,538.0
38.71,531.0
38.72,575.0
38.73,530.0
38.74,523.0
38.75,520.0
38.76,550.0
38.77,539.0
38.78,516.0
38.79,539.0
38.8,472.0
38.81,455.0
38.82,503.0
38.83,566.0
38.84,551.0
38.85,536.0
38.86,558.0
38.87,549.0
38.88,541.0
38.89,518.0
38.9,588.0
38.91,552.0
38.92,512.0
38.93,508.0
38.94,532.0
38.95,529.0
38.96,516.0
38.97,545.0
38.98,556.0
38.99,520.0
39.0,556.0
39.01,585.0
39.02,532.0
39.03,529.0
39.04,561.0
39.05,544.0
39.06,528.0
39.07,540.0
39.08,563.0
39.09,543.0
39.1,501.0
39.11,581.0
39.12,568.0
39.13,546.0
39.14,563.0
39.15,531.0
39.16,511.0
39.17,491.0
39.18,552.0
39.19,594.0
39.2,562.0
39.21,541.0
39.22,564.0
39.23,502.0
39.24,534.0
39.25,551.0
39.26,519.0
39.27,567.0
39.28,522.0
39.29,559.0
39.3,543.0
39.31,515.0
39.32,525.0
39.33,516.0
39.34,514.0
39.35,609.0
39.36,533.0
39.37,537.0
39.38,558.0
39.39,533.0
39.4,553.0
39.41,564.0
39.42,550.0
39.43,536.0
39.44,548.0
39.45,513.0
39.46,521.0
39.47,527.0
39.48,524.0
39.49,541.0
39.5,517.0
39.51,532.0
39.52,534.0
39.53,537.0
39.54,537.0
39.55,521.0
39.56,546.0
39.57,593.0
39.58,536.0
39.59,539.0
39.6,516.0
39.61,507.0
39.62,530.0
39.63,531.0
39.64,563.0
39.65,506.0
39.66,561.0
39.67,555.0
39.68,535.0
39.69,536.0
39.7,527.0
39.71,506.0
39.72,543.0
39.73,558.0
39.74,541.0
39.75,551.0
39.76,516.0
39.77,535.0
39.78,553.0
39.79,567.0
39.8,572.0
39.81,541.0
39.82,531.0
39.83,510.0
39.84,554.0
39.85,571.0
39.86,520.0
39.87,547.0
39.88,557.0
39.89,522.0
39.9,528.0
39.91,559.0
39.92,494.0
39.93,534.0
39.94,562.0
39.95,532.0
39.96,570.0
39.97,539.0
39.98,573.0
39.99,525.0
40.0,520.0
40.01,533.0
40.02,563.0
40.03,538.0
40.04,576.0
40.05,511.0
40.06,518.0
40.07,539.0
40.08,549.0
40.09,525.0
40.1,493.0
40.11,573.0
40.12,561.0
40.13,541.0
40.14,542.0
40.15,515.0
40.16,532.0
40.17,570.0
40.18,544.0
40.19,508.0
40.2,569.0
40.21,529.0
40.22,509.0
40.23,531.0
40.24,540.0
40.25,587.0
40.26,538.0
40.27,575.0
40.28,546.0
40.29,553.0
40.3,516.0
40.31,506.0
40.32,515.0
40.33,567.0
40.34,571.0
40.35,542.0
40.36,555.0
40.37,513.0
40.38,485.0
40.39,564.0
40.4,498.0
40.41,551.0
40.42,552.0
40.43,513.0
40.44,528.0
40.45,534.0
40.46,543.0
40.47,585.0
40.48,548.0
40.49,526.0
40.5,547.0
40.51,498.0
40.52,519.0
40.53,533.0
40.54,522.0
40.55,558.0
40.56,554.0
40.57,566.0
40.58,557.0
40.59,518.0
40.6,557.0
40.61,543.0
40.62,511.0
40.63,504.0
40.64,570.0
40.65,543.0
40.66,554.0
40.67,560.0
40.68,570.0
40.69,540.0
40.7,542.0
40.71,551.0
40.72,538.0
40.73,530.0
40.74,529.0
40.75,524.0
40.76,555.0
40.77,523.0
40.78,531.0
40.79,556.0
40.8,550.0
40.81,540.0
40.82,554.0
40.83,535.0
40.84,556.0
40.85,592.0
40.86,538.0
40.87,557.0
40.88,644.0
40.89,531.0
40.9,568.0
40.91,548.0
40.92,546.0
40.93,524.0
40.94,521.0
40.95,595.0
40.96,514.0
40.97,511.0
40.98,478.0
40.99,520.0
41.0,511.0
41.01,550.0
41.02,551.0
41.03,506.0
41.04,557.0
41.05,543.0
41.06,552.0
41.07,524.0
41.08,525.0
41.09,521.0
41.1,570.0
41.11,544.0
41.12,534.0
41.13,526.0
41.14,526.0
41.15,574.0
41.16,523.0
41.17,554.0
41.18,557.0
41.19,550.0
41.2,500.0
41.21,530.0
41.22,558.0
41.23,529.0
41.24,535.0
41.25,561.0
41.26,516.0
41.27,560.0
41.28,539.0
41.29,570.0
41.3,567.0
41.31,560.0
41.32,569.0
41.33,533.0
41.34,585.0
41.35,578.0
41.36,569.0
41.37,574.0
41.38,575.0
41.39,616.0
41.4,608.0
41.41,620.0
41.42,584.0
41.43,686.0
41.44,628.0
41.45,672.0
41.46,679.0
41.47,661.0
41.48,752.0
41.49,732.0
41.5,740.0
41.51,820.0
41.52,795.0
41.53,781.0
41.54,823.0
41.55,785.0
41.56,770.0
41.57,785.0
41.58,704.0
41.59,743.0
41.6,759.0
41.61,676.0
41.62,700.0
41.63,739.0
41.64,669.0
41.65,715.0
41.66,668.0
41.67,646.0
41.68,680.0
41.69,673.0
41.7,633.0
41.71,597.0
41.72,634.0
41.73,621.0
41.74,575.0
41.75,557.0
41.76,565.0
41.77,562.0
41.78,582.0
41.79,525.0
41.8,554.0
41.81,516.0
41.82,548.0
41.83,553.0
41.84,546.0
41.85,555.0
41.86,529.0
41.87,525.0
41.88,549.0
41.89,564.0
41.9,579.0
41.91,513.0
41.92,568.0
41.93,529.0
41.94,549.0
41.95,542.0
41.96,570.0
41.97,537.0
41.98,572.0
41.99,537.0
42.0,509.0
42.01,548.0
42.02,499.0
42.03,540.0
42.04,556.0
42.05,552.0
42.06,523.0
42.07,538.0
42.08,544.0
42.09,560.0
42.1,540.0
42.11,582.0
42.12,522.0
42.13,542.0
42.14,562.0
42.15,508.0
42.16,466.0
42.17,546.0
42.18,520.0
42.19,540.0
42.2,558.0
42.21,533.0
42.22,493.0
42.23,508.0
42.24,532.0
42.25,590.0
42.26,549.0
42.27,544.0
42.28,530.0
42.29,546.0
42.3,559.0
42.31,532.0
42.32,522.0
42.33,559.0
42.34,528.0
42.35,542.0
42.36,513.0
42.37,542.0
42.38,483.0
42.39,549.0
42.4,484.0
42.41,570.0
42.42,528.0
42.43,532.0
42.44,543.0
42.45,499.0
42.46,519.0
42.47,579.0
42.48,528.0
42.49,571.0
42.5,527.0
42.51,565.0
42.52,555.0
42.53,524.0
42.54,562.0
42.55,549.0
42.56,499.0
42.57,541.0
42.58,531.0
42.59,595.0
42.6,522.0
42.61,548.0
42.62,579.0
42.63,519.0
42.64,541.0
42.65,523.0
42.66,520.0
42.67,501.0
42.68,504.0
42.69,528.0
42.7,489.0
42.71,575.0
42.72,549.0
42.73,548.0
42.74,589.0
42.75,496.0
42.76,501.0
42.77,552.0
42.78,538.0
42.79,535.0
42.8,548.0
42.81,557.0
42.82,566.0
42.83,528.0
42.84,595.0
42.85,524.0
42.86,496.0
42.87,567.0
42.88,512.0
42.89,579.0
42.9,567.0
42.91,547.0
42.92,546.0
42.93,544.0
42.94,504.0
42.95,574.0
42.96,522.0
42.97,562.0
42.98,508.0
42.99,561.0
43.0,548.0
43.01,560.0
43.02,561.0
43.03,562.0
43.04,548.0
43.05,530.0
43.06,539.0
43.07,509.0
43.08,528.0
43.09,525.0
43.1,562.0
43.11,526.0
43.12,532.0
43.13,548.0
43.14,523.0
43.15,509.0
43.16,541.0
43.17,520.0
43.18,563.0
43.19,541.0
43.2,528.0
43.21,516.0
43.22,542.0
43.23,549.0
43.24,549.0
43.25,552.0
43.26,508.0
43.27,504.0
43.28,528.0
43.29,546.0
43.3,509.0
43.31,552.0
43.32,549.0
43.33,585.0
43.34,562.0
43.35,527.0
43.36,558.0
43.37,564.0
43.38,541.0
43.39,535.0
43.4,555.0
43.41,490.0
43.42,588.0
43.43,527.0
43.44,559.0
43.45,569.0
43.46,531.0
43.47,572.0
43.48,529.0
43.49,533.0
43.5,554.0
43.51,522.0
43.52,508.0
43.53,526.0
43.54,530.0
43.55,546.0
43.56,549.0
43.57,533.0
43.58,551.0
43.59,537.0
43.6,530.0
43.61,535.0
43.62,518.0
43.63,534.0
43.64,577.0
43.65,557.0
43.66,564.0
43.67,495.0
43.68,543.0
43.69,539.0
43.7,527.0
43.71,540.0
43.72,504.0
43.73,531.0
43.74,531.0
43.75,540.0
43.76,528.0
43.77,527.0
43.78,528.0
43.79,577.0
43.8,505.0
43.81,534.0
43.82,564.0
43.83,549.0
43.84,572.0
43.85,521.0
43.86,555.0
43.87,557.0
43.88,554.0
43.89,537.0
43.9,520.0
43.91,531.0
43.92,503.0
43.93,549.0
43.94,551.0
43.95,605.0
43.96,529.0
43.97,560.0
43.98,517.0
43.99,587.0
44.0,582.0
44.01,565.0
44.02,553.0
44.03,522.0
44.04,516.0
44.05,543.0
44.06,549.0
44.07,513.0
44.08,536.0
44.09,517.0
44.1,539.0
44.11,534.0
44.12,560.0
44.13,569.0
44.14,510.0
44.15,519.0
44.16,503.0
44.17,541.0
44.18,551.0
44.19,539.0
44.2,547.0
44.21,568.0
44.22,536.0
44.23,531.0
44.24,538.0
44.25,541.0
44.26,530.0
44.27,523.0
44.28,583.0
44.29,524.0
44.3,563.0
44.31,522.0
44.32,581.0
44.33,526.0
44.34,558.0
44.35,511.0
44.36,495.0
44.37,549.0
44.38,521.0
44.39,549.0
44.4,505.0
44.41,535.0
44.42,568.0
44.43,559.0
44.44,545.0
44.45,528.0
44.46,540.0
44.47,523.0
44.48,537.0
44.49,574.0
44.5,566.0
44.51,577.0
44.52,562.0
44.53,515.0
44.54,542.0
44.55,545.0
44.56,552.0
44.57,526.0
44.58,558.0
44.59,524.0
44.6,548.0
44.61,515.0
44.62,523.0
44.63,509.0
44.64,562.0
44.65,559.0
44.66,545.0
44.67,535.0
44.68,558.0
44.69,546.0
44.7,562.0
44.71,540.0
44.72,529.0
44.73,548.0
44.74,539.0
44.75,512.0
44.76,480.0
44.77,524.0
44.78,542.0
44.79,554.0
44.8,551.0
44.81,508.0
44.82,539.0
44.83,539.0
44.84,556.0
44.85,509.0
44.86,569.0
44.87,526.0
44.88,593.0
44.89,539.0
44.9,489.0
44.91,561.0
44.92,566.0
44.93,532.0
44.94,532.0
44.95,536.0
44.96,546.0
44.97,544.0
44.98,570.0
44.99,513.0
45.0,570.0
45.01,536.0
45.02,555.0
45.03,535.0
45.04,597.0
45.05,583.0
45.06,556.0
45.07,523.0
45.08,561.0
45.09,575.0
45.1,587.0
45.11,573.0
45.12,591.0
45.13,572.0
45.14,579.0
45.15,559.0
45.16,582.0
45.17,570.0
45.18,586.0
45.19,628.0
45.2,624.0
45.21,643.0
45.22,577.0
45.23,647.0
45.24,651.0
45.25,723.0
45.26,760.0
45.27,810.0
45.28,788.0
45.29,861.0
45.3,848.0
45.31,865.0
45.32,844.0
45.33,789.0
45.34,784.0
45.35,718.0
45.36,698.0
45.37,719.0
45.38,700.0
45.39,714.0
45.4,718.0
45.41,712.0
45.42,696.0
45.43,702.0
45.44,702.0
45.45,701.0
45.46,658.0
45.47,619.0
45.48,605.0
45.49,601.0
45.5,646.0
45.51,570.0
45.52,601.0
45.53,580.0
45.54,589.0
45.55,581.0
45.56,540.0
45.57,586.0
45.58,577.0
45.59,527.0
45.6,600.0
45.61,562.0
45.62,609.0
45.63,542.0
45.64,552.0
45.65,513.0
45.66,541.0
45.67,535.0
45.68,602.0
45.69,558.0
45.7,570.0
45.71,548.0
45.72,535.0
45.73,575.0
45.74,549.0
45.75,556.0
45.76,518.0
45.77,570.0
45.78,550.0
45.79,497.0
45.8,508.0
45.81,536.0
45.82,559.0
45.83,530.0
45.84,524.0
45.85,562.0
45.86,561.0
45.87,528.0
45.88,546.0
45.89,591.0
45.9,522.0
45.91,524.0
45.92,502.0
45.93,538.0
45.94,536.0
45.95,527.0
45.96,531.0
45.97,542.0
45.98,567.0
45.99,545.0
46.0,529.0
46.01,529.0
46.02,564.0
46.03,521.0
46.04,547.0
46.05,531.0
46.06,497.0
46.07,506.0
46.08,554.0
46.09,565.0
46.1,530.0
46.11,542.0
46.12,552.0
46.13,564.0
46.14,495.0
46.15,530.0
46.16,590.0
46.17,523.0
46.18,521.0
46.19,524.0
46.2,571.0
46.21,484.0
46.22,514.0
46.23,506.0
46.24,540.0
46.25,577.0
46.26,531.0
46.27,523.0
46.28,547.0
46.29,571.0
46.3,567.0
46.31,543.0
46.32,574.0
46.33,526.0
46.34,523.0
46.35,481.0
46.36,572.0
46.37,545.0
46.38,576.0
46.39,511.0
46.4,567.0
46.41,517.0
46.42,501.0
46.43,547.0
46.44,578.0
46.45,540.0
46.46,539.0
46.47,541.0
46.48,536.0
46.49,514.0
46.5,556.0
46.51,545.0
46.52,535.0
46.53,580.0
46.54,563.0
46.55,575.0
46.56,577.0
46.57,555.0
46.58,562.0
46.59,514.0
46.6,521.0
46.61,521.0
46.62,534.0
46.63,555.0
46.64,557.0
46.65,561.0
46.66,566.0
46.67,545.0
46.68,527.0
46.69,553.0
46.7,522.0
46.71,545.0
46.72,478.0
46.73,557.0
46.74,541.0
46.75,542.0
46.76,487.0
46.77,498.0
46.78,537.0
46.79,511.0
46.8,571.0
46.81,573.0
46.82,526.0
46.83,543.0
46.84,473.0
46.85,498.0
46.86,534.0
46.87,530.0
46.88,579.0
46.89,498.0
46.9,546.0
46.91,549.0
46.92,568.0
46.93,518.0
46.94,510.0
46.95,558.0
46.96,553.0
46.97,489.0
46.98,565.0
46.99,539.0
47.0,496.0
47.01,571.0
47.02,560.0
47.03,570.0
47.04,547.0
47.05,575.0
47.06,509.0
47.07,550.0
47.08,500.0
47.09,506.0
47.1,538.0
47.11,562.0
47.12,575.0
47.13,530.0
47.14,555.0
47.15,530.0
47.16,518.0
47.17,515.0
47.18,555.0
47.19,533.0
47.2,546.0
47.21,498.0
47.22,515.0
47.23,534.0
47.24,558.0
47.25,538.0
47.26,536.0
47.27,568.0
47.28,525.0
47.29,536.0
47.3,519.0
47.31,577.0
47.32,569.0
47.33,567.0
47.34,531.0
47.35,582.0
47.36,543.0
47.37,546.0
47.38,507.0
47.39,531.0
47.4,564.0
47.41,516.0
47.42,513.0
47.43,566.0
47.44,570.0
47.45,536.0
47.46,538.0
47.47,521.0
47.48,522.0
47.49,549.0
47.5,526.0
47.51,534.0
47.52,548.0
47.53,537.0
47.54,537.0
47.55,528.0
47.56,515.0
47.57,513.0
47.58,535.0
47.59,549.0
47.6,582.0
47.61,531.0
47.62,576.0
47.63,579.0
47.64,566.0
47.65,537.0
47.66,493.0
47.67,528.0
47.68,507.0
47.69,543.0
47.7,501.0
47.71,537.0
47.72,554.0
47.73,576.0
47.74,524.0
47.75,543.0
47.76,565.0
47.77,518.0
47.78,497.0
47.79,542.0
47.8,547.0
47.81,574.0
47.82,589.0
47.83,505.0
47.84,537.0
47.85,518.0
47.86,537.0
47.87,535.0
47.88,584.0
47.89,554.0
47.9,528.0
47.91,529.0
47.92,513.0
47.93,539.0
47.94,503.0
47.95,560.0
47.96,566.0
47.97,515.0
47.98,527.0
47.99,511.0
48.0,553.0
48.01,532.0
48.02,522.0
48.03,544.0
48.04,568.0
48.05,522.0
48.06,486.0
48.07,550.0
48.08,539.0
48.09,549.0
48.1,559.0
48.11,547.0
48.12,547.0
48.13,508.0
48.14,524.0
48.15,553.0
48.16,532.0
48.17,525.0
48.18,581.0
48.19,540.0
48.2,542.0
48.21,540.0
48.22,503.0
48.23,546.0
48.24,549.0
48.25,528.0
48.26,565.0
48.27,521.0
48.28,536.0
48.29,513.0
48.3,517.0
48.31,531.0
48.32,516.0
48.33,582.0
48.34,532.0
48.35,501.0
48.36,559.0
48.37,530.0
48.38,498.0
48.39,546.0
48.4,540.0
48.41,536.0
48.42,474.0
48.43,546.0
48.44,568.0
48.45,539.0
48.46,522.0
48.47,527.0
48.48,489.0
48.49,498.0
48.5,562.0
48.51,546.0
48.52,554.0
48.53,530.0
48.54,553.0
48.55,507.0
48.56,557.0
48.57,556.0
48.58,523.0
48.59,499.0
48.6,538.0
48.61,490.0
48.62,501.0
48.63,534.0
48.64,514.0
48.65,498.0
48.66,539.0
48.67,550.0
48.68,539.0
48.69,508.0
48.7,527.0
48.71,503.0
48.72,519.0
48.73,580.0
48.74,536.0
48.75,533.0
48.76,534.0
48.77,541.0
48.78,528.0
48.79,564.0
48.8,522.0
48.81,549.0
48.82,542.0
48.83,544.0
48.84,538.0
48.85,586.0
48.86,489.0
48.87,516.0
48.88,511.0
48.89,534.0
48.9,532.0
48.91,555.0
48.92,561.0
48.93,548.0
48.94,560.0
48.95,539.0
48.96,595.0
48.97,557.0
48.98,530.0
48.99,508.0
49.0,532.0
49.01,532.0
49.02,528.0
49.03,551.0
49.04,522.0
49.05,516.0
49.06,538.0
49.07,535.0
49.08,537.0
49.09,531.0
49.1,515.0
49.11,535.0
49.12,511.0
49.13,512.0
49.14,544.0
49.15,543.0
49.16,539.0
49.17,508.0
49.18,527.0
49.19,503.0
49.2,547.0
49.21,533.0
49.22,531.0
49.23,542.0
49.24,514.0
49.25,530.0
49.26,557.0
49.27,540.0
49.28,532.0
49.29,489.0
49.3,543.0
49.31,569.0
49.32,518.0
49.33,545.0
49.34,530.0
49.35,569.0
49.36,556.0
49.37,519.0
49.38,555.0
49.39,527.0
49.4,544.0
49.41,583.0
49.42,549.0
49.43,538.0
49.44,497.0
49.45,545.0
49.46,547.0
49.47,545.0
49.48,526.0
49.49,561.0
49.5,541.0
49.51,506.0
49.52,604.0
49.53,571.0
49.54,583.0
49.55,561.0
49.56,527.0
49.57,554.0
49.58,555.0
49.59,514.0
49.6,556.0
49.61,528.0
49.62,554.0
49.63,602.0
49.64,524.0
49.65,514.0
49.66,572.0
49.67,518.0
49.68,556.0
49.69,537.0
49.7,614.0
49.71,560.0
49.72,568.0
49.73,607.0
49.74,603.0
49.75,567.0
49.76,580.0
49.77,623.0
49.78,613.0
49.79,637.0
49.8,621.0
49.81,654.0
49.82,663.0
49.83,610.0
49.84,597.0
49.85,633.0
49.86,606.0
49.87,632.0
49.88,560.0
49.89,572.0
49.9,598.0
49.91,569.0
49.92,592.0
49.93,635.0
49.94,600.0
49.95,641.0
49.96,619.0
49.97,561.0
49.98,565.0
49.99,585.0
50.0,551.0
50.01,575.0
50.02,602.0
50.03,538.0
50.04,589.0
50.05,559.0
50.06,553.0
50.07,534.0
50.08,557.0
50.09,544.0
50.1,581.0
50.11,546.0
50.12,572.0
50.13,584.0
50.14,542.0
50.15,553.0
50.16,541.0
50.17,505.0
50.18,563.0
50.19,558.0
50.2,535.0
50.21,569.0
50.22,573.0
50.23,524.0
50.24,547.0
50.25,562.0
50.26,532.0
50.27,521.0
50.28,538.0
50.29,550.0
50.3,558.0
50.31,536.0
50.32,577.0
50.33,566.0
50.34,549.0
50.35,553.0
50.36,541.0
50.37,518.0
50.38,555.0
50.39,505.0
50.4,515.0
50.41,517.0
50.42,558.0
50.43,556.0
50.44,520.0
50.45,548.0
50.46,518.0
50.47,524.0
50.48,540.0
50.49,548.0
50.5,548.0
50.51,558.0
50.52,556.0
50.53,526.0
50.54,546.0
50.55,571.0
50.56,543.0
50.57,556.0
50.58,511.0
50.59,535.0
50.6,538.0
50.61,535.0
50.62,570.0
50.63,516.0
50.64,524.0
50.65,530.0
50.66,552.0
50.67,510.0
50.68,544.0
50.69,498.0
50.7,560.0
50.71,507.0
50.72,549.0
50.73,525.0
50.74,569.0
50.75,557.0
50.76,546.0
50.77,582.0
50.78,559.0
50.79,589.0
50.8,552.0
50.81,505.0
50.82,581.0
50.83,529.0
50.84,582.0
50.85,584.0
50.86,561.0
50.87,547.0
50.88,541.0
50.89,516.0
50.9,532.0
50.91,537.0
50.92,539.0
50.93,515.0
50.94,539.0
50.95,549.0
50.96,581.0
50.97,498.0
50.98,540.0
50.99,581.0
51.0,531.0
51.01,489.0
51.02,559.0
51.03,570.0
51.04,576.0
51.05,556.0
51.06,530.0
51.07,560.0
51.08,542.0
51.09,548.0
51.1,545.0
51.11,526.0
51.12,562.0
51.13,548.0
51.14,544.0
51.15,526.0
51.16,577.0
51.17,523.0
51.18,549.0
51.19,553.0
51.2,538.0
51.21,564.0
51.22,581.0
51.23,576.0
51.24,520.0
51.25,541.0
51.26,523.0
51.27,594.0
51.28,622.0
51.29,601.0
51.3,571.0
51.31,595.0
51.32,610.0
51.33,569.0
51.34,583.0
51.35,578.0
51.36,632.0
51.37,594.0
51.38,631.0
51.39,577.0
51.4,603.0
51.41,659.0
51.42,627.0
51.43,635.0
51.44,649.0
51.45,658.0
51.46,620.0
51.47,666.0
51.48,664.0
51.49,649.0
51.5,703.0
51.51,717.0
51.52,747.0
51.53,828.0
51.54,866.0
51.55,879.0
51.56,964.0
51.57,977.0
51.58,1116.0
51.59,1143.0
51.6,1136.0
51.61,1097.0
51.62,1134.0
51.63,1065.0
51.64,948.0
51.65,963.0
51.66,932.0
51.67,929.0
51.68,901.0
51.69,868.0
51.7,981.0
51.71,979.0
51.72,1033.0
51.73,1004.0
51.74,1014.0
51.75,976.0
51.76,1014.0
51.77,1012.0
51.78,1033.0
51.79,1039.0
51.8,1110.0
51.81,1103.0
51.82,1206.0
51.83,1220.0
51.84,1235.0
51.85,1184.0
51.86,1139.0
51.87,1077.0
51.88,1081.0
51.89,998.0
51.9,904.0
51.91,921.0
51.92,902.0
51.93,855.0
51.94,881.0
51.95,946.0
51.96,877.0
51.97,859.0
51.98,925.0
51.99,826.0
52.0,805.0
52.01,750.0
52.02,770.0
52.03,714.0
52.04,749.0
52.05,710.0
52.06,649.0
52.07,620.0
52.08,611.0
52.09,614.0
52.1,595.0
52.11,595.0
52.12,633.0
52.13,588.0
52.14,558.0
52.15,602.0
52.16,595.0
52.17,569.0
52.18,625.0
52.19,564.0
52.2,613.0
52.21,592.0
52.22,582.0
52.23,552.0
52.24,564.0
52.25,568.0
52.26,555.0
52.27,594.0
52.28,562.0
52.29,548.0
52.3,576.0
52.31,576.0
52.32,562.0
52.33,574.0
52.34,565.0
52.35,564.0
52.36,569.0
52.37,535.0
52.38,555.0
52.39,537.0
52.4,609.0
52.41,534.0
52.42,571.0
52.43,535.0
52.44,517.0
52.45,553.0
52.46,562.0
52.47,573.0
52.48,534.0
52.49,569.0
52.5,546.0
52.51,561.0
52.52,541.0
52.53,572.0
52.54,546.0
52.55,553.0
52.56,539.0
52.57,540.0
52.58,524.0
52.59,552.0
52.6,515.0
52.61,524.0
52.62,533.0
52.63,544.0
52.64,535.0
52.65,553.0
52.66,535.0
52.67,507.0
52.68,494.0
52.69,502.0
52.7,576.0
52.71,571.0
52.72,583.0
52.73,530.0
52.74,541.0
52.75,544.0
52.76,541.0
52.77,529.0
52.78,579.0
52.79,515.0
52.8,544.0
52.81,555.0
52.82,559.0
52.83,535.0
52.84,509.0
52.85,586.0
52.86,545.0
52.87,529.0
52.88,510.0
52.89,518.0
52.9,534.0
52.91,558.0
52.92,542.0
52.93,534.0
52.94,513.0
52.95,562.0
52.96,589.0
52.97,542.0
52.98,556.0
52.99,545.0
53.0,565.0
53.01,509.0
53.02,533.0
53.03,556.0
53.04,543.0
53.05,530.0
53.06,546.0
53.07,526.0
53.08,553.0
53.09,542.0
53.1,508.0
53.11,509.0
53.12,519.0
53.13,538.0
53.14,544.0
53.15,541.0
53.16,561.0
53.17,596.0
53.18,537.0
53.19,564.0
53.2,530.0
53.21,517.0
53.22,522.0
53.23,577.0
53.24,533.0
53.25,500.0
53.26,538.0
53.27,593.0
53.28,564.0
53.29,541.0
53.3,531.0
53.31,564.0
53.32,510.0
53.33,558.0
53.34,555.0
53.35,542.0
53.36,531.0
53.37,534.0
53.38,527.0
53.39,534.0
53.4,521.0
53.41,539.0
53.42,564.0
53.43,509.0
53.44,549.0
53.45,537.0
53.46,526.0
53.47,564.0
53.48,575.0
53.49,601.0
53.5,545.0
53.51,551.0
53.52,530.0
53.53,543.0
53.54,519.0
53.55,528.0
53.56,581.0
53.57,538.0
53.58,548.0
53.59,533.0
53.6,552.0
53.61,547.0
53.62,518.0
53.63,498.0
53.64,558.0
53.65,526.0
53.66,508.0
53.67,522.0
53.68,534.0
53.69,525.0
53.7,549.0
53.71,520.0
53.72,548.0
53.73,557.0
53.74,519.0
53.75,499.0
53.76,548.0
53.77,498.0
53.78,576.0
53.79,531.0
53.8,497.0
53.81,560.0
53.82,543.0
53.83,501.0
53.84,512.0
53.85,540.0
53.86,513.0
53.87,561.0
53.88,536.0
53.89,557.0
53.9,536.0
53.91,535.0
53.92,528.0
53.93,511.0
53.94,592.0
53.95,538.0
53.96,552.0
53.97,538.0
53.98,545.0
53.99,548.0
54.0,564.0
54.01,523.0
54.02,547.0
54.03,540.0
54.04,530.0
54.05,495.0
54.06,531.0
54.07,546.0
54.08,555.0
54.09,521.0
54.1,529.0
54.11,543.0
54.12,534.0
54.13,547.0
54.14,556.0
54.15,512.0
54.16,525.0
54.17,561.0
54.18,584.0
54.19,546.0
54.2,546.0
54.21,523.0
54.22,559.0
54.23,542.0
54.24,541.0
54.25,558.0
54.26,540.0
54.27,514.0
54.28,559.0
54.29,535.0
54.3,536.0
54.31,551.0
54.32,558.0
54.33,544.0
54.34,546.0
54.35,539.0
54.36,556.0
54.37,554.0
54.38,555.0
54.39,542.0
54.4,520.0
54.41,510.0
54.42,498.0
54.43,485.0
54.44,550.0
54.45,522.0
54.46,545.0
54.47,546.0
54.48,552.0
54.49,566.0
54.5,554.0
54.51,548.0
54.52,587.0
54.53,522.0
54.54,559.0
54.55,546.0
54.56,566.0
54.57,542.0
54.58,531.0
54.59,517.0
54.6,556.0
54.61,528.0
54.62,516.0
54.63,511.0
54.64,550.0
54.65,574.0
54.66,507.0
54.67,514.0
54.68,539.0
54.69,539.0
54.7,527.0
54.71,556.0
54.72,517.0
54.73,521.0
54.74,496.0
54.75,546.0
54.76,582.0
54.77,565.0
54.78,541.0
54.79,526.0
54.8,566.0
54.81,530.0
54.82,501.0
54.83,560.0
54.84,608.0
54.85,552.0
54.86,521.0
54.87,561.0
54.88,534.0
54.89,532.0
54.9,541.0
54.91,531.0
54.92,568.0
54.93,547.0
54.94,505.0
54.95,505.0
54.96,499.0
54.97,512.0
54.98,512.0
54.99,532.0
55.0,514.0
55.01,547.0
55.02,523.0
55.03,556.0
55.04,525.0
55.05,495.0
55.06,560.0
55.07,549.0
55.08,580.0
55.09,533.0
55.1,563.0
55.11,551.0
55.12,543.0
55.13,532.0
55.14,497.0
55.15,527.0
55.16,512.0
55.17,520.0
55.18,504.0
55.19,483.0
55.2,544.0
55.21,544.0
55.22,519.0
55.23,537.0
55.24,540.0
55.25,539.0
55.26,583.0
55.27,517.0
55.28,567.0
55.29,543.0
55.3,504.0
55.31,547.0
55.32,566.0
55.33,572.0
55.34,521.0
55.35,552.0
55.36,535.0
55.37,543.0
55.38,570.0
55.39,520.0
55.4,502.0
55.41,531.0
55.42,511.0
55.43,558.0
55.44,558.0
55.45,539.0
55.46,579.0
55.47,504.0
55.48,528.0
55.49,554.0
55.5,498.0
55.51,496.0
55.52,496.0
55.53,497.0
55.54,540.0
55.55,525.0
55.56,570.0
55.57,543.0
55.58,595.0
55.59,523.0
55.6,525.0
55.61,529.0
55.62,508.0
55.63,566.0
55.64,510.0
55.65,526.0
55.66,525.0
55.67,558.0
55.68,542.0
55.69,543.0
55.7,542.0
55.71,576.0
55.72,528.0
55.73,530.0
55.74,555.0
55.75,543.0
55.76,518.0
55.77,543.0
55.78,535.0
55.79,552.0
55.8,517.0
55.81,529.0
55.82,517.0
55.83,516.0
55.84,578.0
55.85,543.0
55.86,511.0
55.87,531.0
55.88,566.0
55.89,561.0
55.9,553.0
55.91,534.0
55.92,562.0
55.93,508.0
55.94,507.0
55.95,569.0
55.96,521.0
55.97,545.0
55.98,557.0
55.99,516.0
56.0,533.0
56.01,574.0
56.02,524.0
56.03,571.0
56.04,542.0
56.05,509.0
56.06,552.0
56.07,544.0
56.08,585.0
56.09,512.0
56.1,529.0
56.11,565.0
56.12,549.0
56.13,518.0
56.14,533.0
56.15,569.0
56.16,542.0
56.17,565.0
56.18,552.0
56.19,478.0
56.2,555.0
56.21,507.0
56.22,548.0
56.23,527.0
56.24,589.0
56.25,556.0
56.26,526.0
56.27,571.0
56.28,507.0
56.29,537.0
56.3,523.0
56.31,546.0
56.32,547.0
56.33,526.0
56.34,522.0
56.35,503.0
56.36,513.0
56.37,534.0
56.38,592.0
56.39,569.0
56.4,521.0
56.41,567.0
56.42,519.0
56.43,531.0
56.44,548.0
56.45,502.0
56.46,525.0
56.47,501.0
56.48,547.0
56.49,565.0
56.5,535.0
56.51,553.0
56.52,531.0
56.53,528.0
56.54,544.0
56.55,510.0
56.56,558.0
56.57,538.0
56.58,545.0
56.59,515.0
56.6,578.0
56.61,537.0
56.62,564.0
56.63,552.0
56.64,530.0
56.65,537.0
56.66,545.0
56.67,565.0
56.68,569.0
56.69,523.0
56.7,534.0
56.71,518.0
56.72,534.0
56.73,575.0
56.74,580.0
56.75,505.0
56.76,497.0
56.77,576.0
56.78,555.0
56.79,522.0
56.8,509.0
56.81,536.0
56.82,549.0
56.83,538.0
56.84,562.0
56.85,542.0
56.86,532.0
56.87,533.0
56.88,526.0
56.89,503.0
56.9,545.0
56.91,506.0
56.92,539.0
56.93,542.0
56.94,535.0
56.95,523.0
56.96,558.0
56.97,517.0
56.98,538.0
56.99,524.0
57.0,520.0
57.01,481.0
57.02,506.0
57.03,535.0
57.04,536.0
57.05,515.0
57.06,514.0
57.07,555.0
57.08,526.0
57.09,508.0
57.1,559.0
57.11,527.0
57.12,503.0
57.13,523.0
57.14,509.0
57.15,517.0
57.16,528.0
57.17,570.0
57.18,551.0
57.19,554.0
57.2,489.0
57.21,497.0
57.22,553.0
57.23,501.0
57.24,521.0
57.25,549.0
57.26,540.0
57.27,545.0
57.28,553.0
57.29,532.0
57.3,581.0
57.31,560.0
57.32,575.0
57.33,537.0
57.34,551.0
57.35,565.0
57.36,535.0
57.37,539.0
57.38,514.0
57.39,559.0
57.4,602.0
57.41,510.0
57.42,548.0
57.43,552.0
57.44,536.0
57.45,505.0
57.46,535.0
57.47,550.0
57.48,534.0
57.49,484.0
57.5,488.0
57.51,522.0
57.52,537.0
57.53,545.0
57.54,544.0
57.55,495.0
57.56,500.0
57.57,511.0
57.58,532.0
57.59,546.0
57.6,535.0
57.61,522.0
57.62,560.0
57.63,528.0
57.64,543.0
57.65,552.0
57.66,521.0
57.67,539.0
57.68,540.0
57.69,562.0
57.7,524.0
57.71,522.0
57.72,495.0
57.73,562.0
57.74,592.0
57.75,526.0
57.76,559.0
57.77,542.0
57.78,560.0
57.79,530.0
57.8,526.0
57.81,526.0
57.82,505.0
57.83,538.0
57.84,555.0
57.85,528.0
57.86,532.0
57.87,544.0
57.88,538.0
57.89,526.0
57.9,561.0
57.91,515.0
57.92,532.0
57.93,543.0
57.94,533.0
57.95,575.0
57.96,536.0
57.97,572.0
57.98,516.0
57.99,563.0
58.0,554.0
58.01,576.0
58.02,544.0
58.03,549.0
58.04,539.0
58.05,562.0
58.06,529.0
58.07,522.0
58.08,537.0
58.09,514.0
58.1,530.0
58.11,518.0
58.12,550.0
58.13,479.0
58.14,556.0
58.15,588.0
58.16,541.0
58.17,553.0
58.18,515.0
58.19,562.0
58.2,551.0
58.21,525.0
58.22,524.0
58.23,550.0
58.24,534.0
58.25,572.0
58.26,528.0
58.27,538.0
58.28,564.0
58.29,526.0
58.3,541.0
58.31,533.0
58.32,561.0
58.33,555.0
58.34,553.0
58.35,516.0
58.36,525.0
58.37,535.0
58.38,551.0
58.39,543.0
58.4,545.0
58.41,513.0
58.42,535.0
58.43,530.0
58.44,564.0
58.45,591.0
58.46,523.0
58.47,530.0
58.48,495.0
58.49,531.0
58.5,549.0
58.51,538.0
58.52,565.0
58.53,574.0
58.54,511.0
58.55,555.0
58.56,563.0
58.57,502.0
58.58,544.0
58.59,549.0
58.6,582.0
58.61,520.0
58.62,577.0
58.63,537.0
58.64,538.0
58.65,562.0
58.66,542.0
58.67,523.0
58.68,570.0
58.69,511.0
58.7,557.0
58.71,554.0
58.72,536.0
58.73,539.0
58.74,513.0
58.75,523.0
58.76,474.0
58.77,558.0
58.78,556.0
58.79,542.0
58.8,577.0
58.81,563.0
58.82,522.0
58.83,503.0
58.84,559.0
58.85,523.0
58.86,591.0
58.87,527.0
58.88,522.0
58.89,525.0
58.9,565.0
58.91,524.0
58.92,536.0
58.93,555.0
58.94,527.0
58.95,531.0
58.96,515.0
58.97,507.0
58.98,532.0
58.99,591.0
59.0,516.0
59.01,522.0
59.02,524.0
59.03,543.0
59.04,526.0
59.05,479.0
59.06,526.0
59.07,611.0
59.08,565.0
59.09,528.0
59.1,517.0
59.11,524.0
59.12,528.0
59.13,548.0
59.14,534.0
59.15,518.0
59.16,523.0
59.17,560.0
59.18,550.0
59.19,539.0
59.2,497.0
59.21,572.0
59.22,541.0
59.23,541.0
59.24,559.0
59.25,562.0
59.26,603.0
59.27,558.0
59.28,515.0
59.29,549.0
59.3,520.0
59.31,574.0
59.32,581.0
59.33,536.0
59.34,567.0
59.35,524.0
59.36,586.0
59.37,569.0
59.38,551.0
59.39,581.0
59.4,594.0
59.41,550.0
59.42,515.0
59.43,566.0
59.44,561.0
59.45,547.0
59.46,537.0
59.47,541.0
59.48,533.0
59.49,618.0
59.5,568.0
59.51,518.0
59.52,592.0
59.53,540.0
59.54,539.0
59.55,520.0
59.56,533.0
59.57,559.0
59.58,535.0
59.59,555.0
59.6,530.0
59.61,512.0
59.62,487.0
59.63,531.0
59.64,512.0
59.65,559.0
59.66,520.0
59.67,569.0
59.68,571.0
59.69,561.0
59.7,537.0
59.71,547.0
59.72,539.0
59.73,566.0
59.74,546.0
59.75,533.0
59.76,549.0
59.77,558.0
59.78,515.0
59.79,521.0
59.8,553.0
59.81,518.0
59.82,515.0
59.83,516.0
59.84,558.0
59.85,511.0
59.86,552.0
59.87,538.0
59.88,541.0
59.89,530.0
59.9,592.0
59.91,528.0
59.92,542.0
59.93,541.0
59.94,578.0
59.95,585.0
59.96,520.0
59.97,525.0
59.98,557.0
59.99,510.0
60.0,557.0
60.01,522.0
60.02,538.0
60.03,578.0
60.04,526.0
60.05,575.0
60.06,552.0
60.07,590.0
60.08,594.0
60.09,527.0
60.1,563.0
60.11,575.0
60.12,540.0
60.13,551.0
60.14,569.0
60.15,545.0
60.16,568.0
60.17,607.0
60.18,582.0
60.19,555.0
60.2,563.0
60.21,575.0
60.22,596.0
60.23,600.0
60.24,569.0
60.25,579.0
60.26,605.0
60.27,609.0
60.28,639.0
60.29,635.0
60.3,640.0
60.31,623.0
60.32,682.0
60.33,736.0
60.34,668.0
60.35,707.0
60.36,633.0
60.37,607.0
60.38,645.0
60.39,676.0
60.4,622.0
60.41,586.0
60.42,622.0
60.43,598.0
60.44,657.0
60.45,648.0
60.46,609.0
60.47,625.0
60.48,638.0
60.49,626.0
60.5,639.0
60.51,613.0
60.52,671.0
60.53,604.0
60.54,620.0
60.55,578.0
60.56,562.0
60.57,580.0
60.58,555.0
60.59,578.0
60.6,572.0
60.61,548.0
60.62,547.0
60.63,559.0
60.64,571.0
60.65,559.0
60.66,563.0
60.67,565.0
60.68,524.0
60.69,562.0
60.7,550.0
60.71,560.0
60.72,514.0
60.73,567.0
60.74,568.0
60.75,518.0
60.76,517.0
60.77,567.0
60.78,539.0
60.79,538.0
60.8,563.0
60.81,547.0
60.82,560.0
60.83,558.0
60.84,542.0
60.85,552.0
60.86,550.0
60.87,576.0
60.88,546.0
60.89,482.0
60.9,563.0
60.91,564.0
60.92,538.0
60.93,558.0
60.94,538.0
60.95,512.0
60.96,524.0
60.97,545.0
60.98,503.0
60.99,530.0
61.0,556.0
61.01,573.0
61.02,567.0
61.03,493.0
61.04,540.0
61.05,544.0
61.06,498.0
61.07,546.0
61.08,523.0
61.09,543.0
61.1,531.0
61.11,497.0
61.12,560.0
61.13,537.0
61.14,548.0
61.15,539.0
61.16,514.0
61.17,524.0
61.18,548.0
61.19,539.0
61.2,493.0
61.21,554.0
61.22,554.0
61.23,602.0
61.24,525.0
61.25,534.0
61.26,550.0
61.27,530.0
61.28,531.0
61.29,537.0
61.3,522.0
61.31,518.0
61.32,516.0
61.33,515.0
61.34,543.0
61.35,547.0
61.36,553.0
61.37,572.0
61.38,567.0
61.39,518.0
61.4,567.0
61.41,547.0
61.42,537.0
61.43,486.0
61.44,518.0
61.45,523.0
61.46,519.0
61.47,527.0
61.48,538.0
61.49,541.0
61.5,515.0
61.51,537.0
61.52,547.0
61.53,499.0
61.54,535.0
61.55,544.0
61.56,536.0
61.57,518.0
61.58,550.0
61.59,526.0
61.6,576.0
61.61,530.0
61.62,559.0
61.63,519.0
61.64,521.0
61.65,561.0
61.66,536.0
61.67,535.0
61.68,529.0
61.69,525.0
61.7,526.0
61.71,513.0
61.72,583.0
61.73,519.0
61.74,564.0
61.75,514.0
61.76,537.0
61.77,519.0
61.78,582.0
61.79,533.0
61.8,504.0
61.81,573.0
61.82,521.0
61.83,527.0
61.84,513.0
61.85,527.0
61.86,570.0
61.87,526.0
61.88,556.0
61.89,526.0
61.9,518.0
61.91,513.0
61.92,533.0
61.93,553.0
61.94,521.0
61.95,530.0
61.96,524.0
61.97,540.0
61.98,536.0
61.99,536.0
62.0,487.0
62.01,547.0
62.02,524.0
62.03,540.0
62.04,508.0
62.05,550.0
62.06,509.0
62.07,565.0
62.08,494.0
62.09,551.0
62.1,541.0
62.11,496.0
62.12,529.0
62.13,523.0
62.14,574.0
62.15,506.0
62.16,497.0
62.17,589.0
62.18,537.0
62.19,542.0
62.2,524.0
62.21,505.0
62.22,498.0
62.23,538.0
62.24,542.0
62.25,567.0
62.26,569.0
62.27,549.0
62.28,532.0
62.29,516.0
62.3,511.0
62.31,547.0
62.32,520.0
62.33,544.0
62.34,572.0
62.35,555.0
62.36,554.0
62.37,549.0
62.38,574.0
62.39,550.0
62.4,533.0
62.41,540.0
62.42,507.0
62.43,537.0
62.44,570.0
62.45,571.0
62.46,498.0
62.47,529.0
62.48,578.0
62.49,557.0
62.5,549.0
62.51,494.0
62.52,468.0
62.53,527.0
62.54,571.0
62.55,539.0
62.56,547.0
62.57,518.0
62.58,515.0
62.59,538.0
62.6,523.0
62.61,512.0
62.62,524.0
62.63,557.0
62.64,531.0
62.65,505.0
62.66,515.0
62.67,560.0
62.68,512.0
62.69,574.0
62.7,505.0
62.71,534.0
62.72,520.0
62.73,518.0
62.74,550.0
62.75,568.0
62.76,534.0
62.77,573.0
62.78,536.0
62.79,525.0
62.8,546.0
62.81,542.0
62.82,531.0
62.83,525.0
62.84,471.0
62.85,552.0
62.86,469.0
62.87,497.0
62.88,544.0
62.89,482.0
62.9,567.0
62.91,532.0
62.92,532.0
62.93,549.0
62.94,562.0
62.95,524.0
62.96,512.0
62.97,537.0
62.98,493.0
62.99,465.0
63.0,575.0
63.01,511.0
63.02,542.0
63.03,532.0
63.04,530.0
63.05,531.0
63.06,507.0
63.07,542.0
63.08,529.0
63.09,534.0
63.1,538.0
63.11,555.0
63.12,538.0
63.13,540.0
63.14,568.0
63.15,547.0
63.16,552.0
63.17,505.0
63.18,554.0
63.19,500.0
63.2,526.0
63.21,551.0
63.22,559.0
63.23,515.0
63.24,548.0
63.25,545.0
63.26,578.0
63.27,552.0
63.28,550.0
63.29,563.0
63.3,534.0
63.31,528.0
63.32,519.0
63.33,565.0
63.34,500.0
63.35,520.0
63.36,542.0
63.37,614.0
63.38,514.0
63.39,570.0
63.4,621.0
63.41,579.0
63.42,548.0
63.43,596.0
63.44,584.0
63.45,653.0
63.46,614.0
63.47,602.0
63.48,649.0
63.49,606.0
63.5,573.0
63.51,563.0
63.52,541.0
63.53,593.0
63.54,588.0
63.55,600.0
63.56,588.0
63.57,560.0
63.58,607.0
63.59,561.0
63.6,548.0
63.61,578.0
63.62,612.0
63.63,602.0
63.64,598.0
63.65,565.0
63.66,565.0
63.67,589.0
63.68,586.0
63.69,527.0
63.7,542.0
63.71,527.0
63.72,597.0
63.73,570.0
63.74,577.0
63.75,550.0
63.76,549.0
63.77,581.0
63.78,567.0
63.79,552.0
63.8,535.0
63.81,562.0
63.82,525.0
63.83,520.0
63.84,511.0
63.85,568.0
63.86,558.0
63.87,587.0
63.88,539.0
63.89,547.0
63.9,575.0
63.91,548.0
63.92,588.0
63.93,547.0
63.94,555.0
63.95,555.0
63.96,550.0
63.97,582.0
63.98,568.0
63.99,568.0
64.0,568.0
64.01,604.0
64.02,576.0
64.03,575.0
64.04,616.0
64.05,602.0
64.06,654.0
64.07,633.0
64.08,644.0
64.09,652.0
64.1,652.0
64.11,658.0
64.12,628.0
64.13,611.0
64.14,625.0
64.15,680.0
64.16,632.0
64.17,632.0
64.18,594.0
64.19,606.0
64.2,582.0
64.21,579.0
64.22,583.0
64.23,624.0
64.24,564.0
64.25,609.0
64.26,577.0
64.27,581.0
64.28,617.0
64.29,579.0
64.3,632.0
64.31,584.0
64.32,546.0
64.33,583.0
64.34,553.0
64.35,575.0
64.36,614.0
64.37,594.0
64.38,590.0
64.39,543.0
64.4,548.0
64.41,552.0
64.42,538.0
64.43,566.0
64.44,561.0
64.45,559.0
64.46,514.0
64.47,569.0
64.48,540.0
64.49,543.0
64.5,570.0
64.51,548.0
64.52,588.0
64.53,524.0
64.54,605.0
64.55,538.0
64.56,539.0
64.57,514.0
64.58,550.0
64.59,562.0
64.6,576.0
64.61,556.0
64.62,546.0
64.63,497.0
64.64,547.0
64.65,563.0
64.66,541.0
64.67,498.0
64.68,517.0
64.69,503.0
64.7,536.0
64.71,511.0
64.72,499.0
64.73,514.0
64.74,605.0
64.75,542.0
64.76,531.0
64.77,548.0
64.78,534.0
64.79,546.0
64.8,541.0
64.81,536.0
64.82,583.0
64.83,550.0
64.84,530.0
64.85,581.0
64.86,505.0
64.87,537.0
64.88,555.0
64.89,567.0
64.9,528.0
64.91,560.0
64.92,541.0
64.93,510.0
64.94,509.0
64.95,547.0
64.96,557.0
64.97,545.0
64.98,531.0
64.99,554.0
65.0,534.0
65.01,539.0
65.02,544.0
65.03,516.0
65.04,547.0
65.05,554.0
65.06,517.0
65.07,528.0
65.08,533.0
65.09,549.0
65.1,536.0
65.11,517.0
65.12,526.0
65.13,529.0
65.14,496.0
65.15,537.0
65.16,527.0
65.17,585.0
65.18,512.0
65.19,511.0
65.2,537.0
65.21,558.0
65.22,517.0
65.23,520.0
65.24,524.0
65.25,607.0
65.26,537.0
65.27,523.0
65.28,524.0
65.29,575.0
65.3,563.0
65.31,537.0
65.32,555.0
65.33,554.0
65.34,533.0
65.35,530.0
65.36,534.0
65.37,555.0
65.38,562.0
65.39,515.0
65.4,545.0
65.41,556.0
65.42,529.0
65.43,545.0
65.44,556.0
65.45,534.0
65.46,541.0
65.47,551.0
65.48,556.0
65.49,539.0
65.5,556.0
65.51,578.0
65.52,581.0
65.53,597.0
65.54,589.0
65.55,613.0
65.56,653.0
65.57,598.0
65.58,624.0
65.59,616.0
65.6,677.0
65.61,648.0
65.62,653.0
65.63,719.0
65.64,616.0
65.65,673.0
65.66,648.0
65.67,626.0
65.68,592.0
65.69,586.0
65.7,595.0
65.71,536.0
65.72,570.0
65.73,613.0
65.74,590.0
65.75,543.0
65.76,562.0
65.77,628.0
65.78,593.0
65.79,644.0
65.8,659.0
65.81,609.0
65.82,615.0
65.83,593.0
65.84,581.0
65.85,557.0
65.86,565.0
65.87,589.0
65.88,546.0
65.89,567.0
65.9,592.0
65.91,522.0
65.92,548.0
65.93,512.0
65.94,587.0
65.95,552.0
65.96,556.0
65.97,573.0
65.98,568.0
65.99,526.0
66.0,513.0
66.01,549.0
66.02,552.0
66.03,536.0
66.04,550.0
66.05,516.0
66.06,513.0
66.07,547.0
66.08,546.0
66.09,543.0
66.1,526.0
66.11,564.0
66.12,554.0
66.13,541.0
66.14,522.0
66.15,549.0
66.16,520.0
66.17,552.0
66.18,559.0
66.19,555.0
66.2,531.0
66.21,488.0
66.22,563.0
66.23,514.0
66.24,542.0
66.25,544.0
66.26,535.0
66.27,583.0
66.28,554.0
66.29,557.0
66.3,528.0
66.31,574.0
66.32,542.0
66.33,552.0
66.34,601.0
66.35,577.0
66.36,573.0
66.37,601.0
66.38,607.0
66.39,578.0
66.4,626.0
66.41,557.0
66.42,634.0
66.43,590.0
66.44,615.0
66.45,593.0
66.46,587.0
66.47,655.0
66.48,567.0
66.49,567.0
66.5,568.0
66.51,589.0
66.52,549.0
66.53,591.0
66.54,547.0
66.55,589.0
66.56,557.0
66.57,592.0
66.58,583.0
66.59,600.0
66.6,544.0
66.61,580.0
66.62,544.0
66.63,553.0
66.64,574.0
66.65,599.0
66.66,505.0
66.67,563.0
66.68,519.0
66.69,627.0
66.7,529.0
66.71,527.0
66.72,542.0
66.73,587.0
66.74,507.0
66.75,564.0
66.76,571.0
66.77,530.0
66.78,584.0
66.79,555.0
66.8,565.0
66.81,529.0
66.82,600.0
66.83,531.0
66.84,591.0
66.85,540.0
66.86,544.0
66.87,530.0
66.88,517.0
66.89,554.0
66.9,535.0
66.91,557.0
66.92,537.0
66.93,530.0
66.94,505.0
66.95,534.0
66.96,530.0
66.97,547.0
66.98,518.0
66.99,558.0
67.0,555.0
67.01,563.0
67.02,499.0
67.03,508.0
67.04,613.0
67.05,547.0
67.06,568.0
67.07,578.0
67.08,564.0
67.09,583.0
67.1,581.0
67.11,537.0
67.12,543.0
67.13,558.0
67.14,533.0
67.15,535.0
67.16,518.0
67.17,555.0
67.18,538.0
67.19,502.0
67.2,562.0
67.21,523.0
67.22,504.0
67.23,550.0
67.24,574.0
67.25,520.0
67.26,561.0
67.27,525.0
67.28,558.0
67.29,526.0
67.3,537.0
67.31,552.0
67.32,559.0
67.33,504.0
67.34,574.0
67.35,525.0
67.36,551.0
67.37,520.0
67.38,553.0
67.39,564.0
67.4,525.0
67.41,578.0
67.42,575.0
67.43,501.0
67.44,532.0
67.45,532.0
67.46,539.0
67.47,558.0
67.48,540.0
67.49,542.0
67.5,572.0
67.51,559.0
67.52,531.0
67.53,553.0
67.54,560.0
67.55,542.0
67.56,574.0
67.57,564.0
67.58,540.0
67.59,511.0
67.6,557.0
67.61,549.0
67.62,547.0
67.63,532.0
67.64,550.0
67.65,553.0
67.66,523.0
67.67,544.0
67.68,543.0
67.69,561.0
67.7,540.0
67.71,573.0
67.72,535.0
67.73,550.0
67.74,529.0
67.75,548.0
67.76,551.0
67.77,587.0
67.78,573.0
67.79,558.0
67.8,549.0
67.81,547.0
67.82,568.0
67.83,559.0
67.84,618.0
67.85,575.0
67.86,540.0
67.87,606.0
67.88,585.0
67.89,612.0
67.9,617.0
67.91,587.0
67.92,663.0
67.93,644.0
67.94,635.0
67.95,629.0
67.96,616.0
67.97,597.0
67.98,602.0
67.99,582.0
68.0,575.0
68.01,587.0
68.02,588.0
68.03,579.0
68.04,579.0
68.05,608.0
68.06,555.0
68.07,571.0
68.08,580.0
68.09,585.0
68.1,594.0
68.11,591.0
68.12,555.0
68.13,576.0
68.14,597.0
68.15,585.0
68.16,559.0
68.17,597.0
68.18,572.0
68.19,586.0
68.2,544.0
68.21,549.0
68.22,565.0
68.23,560.0
68.24,539.0
68.25,550.0
68.26,572.0
68.27,577.0
68.28,534.0
68.29,539.0
68.3,573.0
68.31,545.0
68.32,562.0
68.33,538.0
68.34,543.0
68.35,548.0
68.36,520.0
68.37,576.0
68.38,569.0
68.39,568.0
68.4,584.0
68.41,506.0
68.42,547.0
68.43,556.0
68.44,586.0
68.45,547.0
68.46,550.0
68.47,511.0
68.48,556.0
68.49,564.0
68.5,498.0
68.51,563.0
68.52,520.0
68.53,529.0
68.54,529.0
68.55,547.0
68.56,533.0
68.57,531.0
68.58,515.0
68.59,532.0
68.6,535.0
68.61,574.0
68.62,600.0
68.63,555.0
68.64,571.0
68.65,531.0
68.66,569.0
68.67,509.0
68.68,568.0
68.69,540.0
68.7,549.0
68.71,545.0
68.72,555.0
68.73,539.0
68.74,528.0
68.75,503.0
68.76,528.0
68.77,528.0
68.78,541.0
68.79,561.0
68.8,567.0
68.81,574.0
68.82,563.0
68.83,552.0
68.84,562.0
68.85,504.0
68.86,511.0
68.87,557.0
68.88,549.0
68.89,533.0
68.9,534.0
68.91,569.0
68.92,536.0
68.93,539.0
68.94,507.0
68.95,525.0
68.96,544.0
68.97,523.0
68.98,517.0
68.99,528.0
69.0,508.0
69.01,501.0
69.02,527.0
69.03,563.0
69.04,508.0
69.05,489.0
69.06,561.0
69.07,524.0
69.08,548.0
69.09,523.0
69.1,559.0
69.11,569.0
69.12,507.0
69.13,502.0
69.14,550.0
69.15,531.0
69.16,531.0
69.17,546.0
69.18,552.0
69.19,546.0
69.2,544.0
69.21,563.0
69.22,531.0
69.23,550.0
69.24,540.0
69.25,531.0
69.26,542.0
69.27,536.0
69.28,586.0
69.29,560.0
69.3,550.0
69.31,520.0
69.32,506.0
69.33,522.0
69.34,542.0
69.35,522.0
69.36,518.0
69.37,534.0
69.38,486.0
69.39,546.0
69.4,538.0
69.41,586.0
69.42,557.0
69.43,554.0
69.44,589.0
69.45,505.0
69.46,572.0
69.47,558.0
69.48,490.0
69.49,506.0
69.5,477.0
69.51,568.0
69.52,514.0
69.53,516.0
69.54,566.0
69.55,543.0
69.56,540.0
69.57,550.0
69.58,492.0
69.59,530.0
69.6,489.0
69.61,536.0
69.62,560.0
69.63,567.0
69.64,521.0
69.65,514.0
69.66,548.0
69.67,530.0
69.68,543.0
69.69,548.0
69.7,513.0
69.71,517.0
69.72,521.0
69.73,558.0
69.74,553.0
69.75,542.0
69.76,543.0
69.77,514.0
69.78,528.0
69.79,543.0
69.8,511.0
69.81,566.0
69.82,545.0
69.83,562.0
69.84,525.0
69.85,549.0
69.86,541.0
69.87,533.0
69.88,530.0
69.89,559.0
69.9,511.0
69.91,550.0
69.92,530.0
69.93,521.0
69.94,579.0
69.95,512.0
69.96,513.0
69.97,560.0
69.98,552.0
69.99,557.0
70.0,508.0
70.01,537.0
70.02,548.0
70.03,538.0
70.04,520.0
70.05,522.0
70.06,511.0
70.07,545.0
70.08,533.0
70.09,503.0
70.1,564.0
70.11,544.0
70.12,537.0
70.13,536.0
70.14,539.0
70.15,537.0
70.16,504.0
70.17,547.0
70.18,537.0
70.19,544.0
70.2,515.0
70.21,535.0
70.22,537.0
70.23,533.0
70.24,529.0
70.25,529.0
70.26,530.0
70.27,579.0
70.28,563.0
70.29,567.0
70.3,538.0
70.31,535.0
70.32,531.0
70.33,554.0
70.34,514.0
70.35,570.0
70.36,503.0
70.37,536.0
70.38,580.0
70.39,544.0
70.4,485.0
70.41,552.0
70.42,532.0
70.43,552.0
70.44,539.0
70.45,577.0
70.46,541.0
70.47,527.0
70.48,511.0
70.49,532.0
70.5,532.0
70.51,530.0
70.52,524.0
70.53,540.0
70.54,539.0
70.55,550.0
70.56,514.0
70.57,547.0
70.58,549.0
70.59,509.0
70.6,502.0
70.61,550.0
70.62,540.0
70.63,540.0
70.64,535.0
70.65,508.0
70.66,529.0
70.67,539.0
70.68,522.0
70.69,558.0
70.7,535.0
70.71,537.0
70.72,505.0
70.73,538.0
70.74,527.0
70.75,548.0
70.76,496.0
70.77,538.0
70.78,511.0
70.79,530.0
70.8,542.0
70.81,533.0
70.82,522.0
70.83,519.0
70.84,562.0
70.85,532.0
70.86,516.0
70.87,529.0
70.88,571.0
70.89,524.0
70.9,476.0
70.91,546.0
70.92,544.0
70.93,514.0
70.94,510.0
70.95,542.0
70.96,517.0
70.97,525.0
70.98,555.0
70.99,537.0
71.0,543.0
71.01,494.0
71.02,527.0
71.03,581.0
71.04,535.0
71.05,554.0
71.06,520.0
71.07,526.0
71.08,518.0
71.09,540.0
71.1,529.0
71.11,493.0
71.12,571.0
71.13,544.0
71.14,550.0
71.15,519.0
71.16,521.0
71.17,519.0
71.18,545.0
71.19,515.0
71.2,513.0
71.21,517.0
71.22,588.0
71.23,575.0
71.24,577.0
71.25,524.0
71.26,558.0
71.27,535.0
71.28,544.0
71.29,581.0
71.3,584.0
71.31,530.0
71.32,568.0
71.33,543.0
71.34,559.0
71.35,512.0
71.36,527.0
71.37,511.0
71.38,546.0
71.39,533.0
71.4,506.0
71.41,507.0
71.42,547.0
71.43,527.0
71.44,532.0
71.45,522.0
71.46,515.0
71.47,523.0
71.48,528.0
71.49,536.0
71.5,550.0
71.51,493.0
71.52,546.0
71.53,542.0
71.54,548.0
71.55,553.0
71.56,511.0
71.57,556.0
71.58,558.0
71.59,489.0
71.6,533.0
71.61,538.0
71.62,510.0
71.63,525.0
71.64,541.0
71.65,564.0
71.66,500.0
71.67,525.0
71.68,526.0
71.69,525.0
71.7,573.0
71.71,567.0
71.72,573.0
71.73,554.0
71.74,568.0
71.75,533.0
71.76,589.0
71.77,579.0
71.78,521.0
71.79,533.0
71.8,498.0
71.81,554.0
71.82,526.0
71.83,539.0
71.84,545.0
71.85,530.0
71.86,557.0
71.87,534.0
71.88,493.0
71.89,534.0
71.9,503.0
71.91,548.0
71.92,536.0
71.93,570.0
71.94,529.0
71.95,489.0
71.96,567.0
71.97,537.0
71.98,517.0
71.99,584.0
72.0,516.0
72.01,554.0
72.02,520.0
72.03,540.0
72.04,506.0
72.05,529.0
72.06,569.0
72.07,548.0
72.08,522.0
72.09,548.0
72.1,559.0
72.11,536.0
72.12,595.0
72.13,573.0
72.14,529.0
72.15,515.0
72.16,541.0
72.17,517.0
72.18,585.0
72.19,548.0
72.2,553.0
72.21,553.0
72.22,561.0
72.23,532.0
72.24,544.0
72.25,528.0
72.26,597.0
72.27,584.0
72.28,593.0
72.29,587.0
72.3,573.0
72.31,595.0
72.32,623.0
72.33,606.0
72.34,615.0
72.35,622.0
72.36,633.0
72.37,613.0
72.38,636.0
72.39,645.0
72.4,633.0
72.41,564.0
72.42,584.0
72.43,570.0
72.44,622.0
72.45,617.0
72.46,603.0
72.47,610.0
72.48,558.0
72.49,570.0
72.5,541.0
72.51,598.0
72.52,559.0
72.53,568.0
72.54,592.0
72.55,569.0
72.56,584.0
72.57,604.0
72.58,593.0
72.59,583.0
72.6,599.0
72.61,559.0
72.62,590.0
72.63,571.0
72.64,565.0
72.65,603.0
72.66,554.0
72.67,535.0
72.68,536.0
72.69,558.0
72.7,553.0
72.71,538.0
72.72,554.0
72.73,553.0
72.74,512.0
72.75,544.0
72.76,529.0
72.77,577.0
72.78,570.0
72.79,549.0
72.8,550.0
72.81,549.0
72.82,577.0
72.83,536.0
72.84,555.0
72.85,567.0
72.86,540.0
72.87,501.0
72.88,544.0
72.89,541.0
72.9,572.0
72.91,543.0
72.92,540.0
72.93,552.0
72.94,499.0
72.95,530.0
72.96,547.0
72.97,528.0
72.98,515.0
72.99,561.0
73.0,502.0
73.01,526.0
73.02,522.0
73.03,522.0
73.04,532.0
73.05,560.0
73.06,541.0
73.07,566.0
73.08,520.0
73.09,552.0
73.1,509.0
73.11,529.0
73.12,548.0
73.13,594.0
73.14,561.0
73.15,506.0
73.16,548.0
73.17,561.0
73.18,520.0
73.19,544.0
73.2,537.0
73.21,521.0
73.22,572.0
73.23,552.0
73.24,526.0
73.25,540.0
73.26,528.0
73.27,561.0
73.28,548.0
73.29,552.0
73.3,547.0
73.31,554.0
73.32,524.0
73.33,503.0
73.34,530.0
73.35,505.0
73.36,500.0
73.37,521.0
73.38,524.0
73.39,542.0
73.4,534.0
73.41,516.0
73.42,492.0
73.43,550.0
73.44,524.0
73.45,513.0
73.46,540.0
73.47,528.0
73.48,520.0
73.49,523.0
73.5,532.0
73.51,506.0
73.52,550.0
73.53,533.0
73.54,561.0
73.55,538.0
73.56,503.0
73.57,518.0
73.58,533.0
73.59,560.0
73.6,548.0
73.61,514.0
73.62,548.0
73.63,534.0
73.64,541.0
73.65,571.0
73.66,545.0
73.67,545.0
73.68,574.0
73.69,540.0
73.7,582.0
73.71,556.0
73.72,572.0
73.73,533.0
73.74,537.0
73.75,521.0
73.76,551.0
73.77,504.0
73.78,548.0
73.79,537.0
73.8,532.0
73.81,513.0
73.82,545.0
73.83,574.0
73.84,537.0
73.85,559.0
73.86,507.0
73.87,554.0
73.88,544.0
73.89,564.0
73.9,511.0
73.91,526.0
73.92,518.0
73.93,551.0
73.94,542.0
73.95,603.0
73.96,525.0
73.97,548.0
73.98,527.0
73.99,553.0
74.0,531.0
74.01,530.0
74.02,538.0
74.03,537.0
74.04,538.0
74.05,512.0
74.06,513.0
74.07,540.0
74.08,537.0
74.09,554.0
74.1,553.0
74.11,534.0
74.12,561.0
74.13,545.0
74.14,541.0
74.15,538.0
74.16,517.0
74.17,578.0
74.18,575.0
74.19,543.0
74.2,546.0
74.21,540.0
74.22,565.0
74.23,506.0
74.24,548.0
74.25,568.0
74.26,548.0
74.27,548.0
74.28,536.0
74.29,543.0
74.3,552.0
74.31,535.0
74.32,524.0
74.33,533.0
74.34,530.0
74.35,525.0
74.36,557.0
74.37,543.0
74.38,543.0
74.39,523.0
74.4,511.0
74.41,563.0
74.42,576.0
74.43,502.0
74.44,544.0
74.45,515.0
74.46,533.0
74.47,560.0
74.48,533.0
74.49,554.0
74.5,541.0
74.51,559.0
74.52,596.0
74.53,535.0
74.54,518.0
74.55,540.0
74.56,519.0
74.57,539.0
74.58,534.0
74.59,547.0
74.6,572.0
74.61,577.0
74.62,522.0
74.63,573.0
74.64,558.0
74.65,512.0
74.66,517.0
74.67,503.0
74.68,526.0
74.69,541.0
74.7,563.0
74.71,535.0
74.72,530.0
74.73,528.0
74.74,531.0
74.75,505.0
74.76,555.0
74.77,512.0
74.78,529.0
74.79,521.0
74.8,541.0
74.81,554.0
74.82,533.0
74.83,562.0
74.84,540.0
74.85,536.0
74.86,572.0
74.87,475.0
74.88,535.0
74.89,493.0
74.9,524.0
74.91,520.0
74.92,596.0
74.93,548.0
74.94,551.0
74.95,503.0
74.96,541.0
74.97,521.0
74.98,538.0
74.99,578.0
75.0,537.0
75.01,551.0
75.02,547.0
75.03,495.0
75.04,539.0
75.05,521.0
75.06,565.0
75.07,532.0
75.08,540.0
75.09,552.0
75.1,584.0
75.11,533.0
75.12,491.0
75.13,606.0
75.14,505.0
75.15,550.0
75.16,533.0
75.17,504.0
75.18,548.0
75.19,541.0
75.2,553.0
75.21,516.0
75.22,536.0
75.23,496.0
75.24,543.0
75.25,540.0
75.26,577.0
75.27,534.0
75.28,531.0
75.29,558.0
75.3,520.0
75.31,543.0
75.32,486.0
75.33,539.0
75.34,543.0
75.35,504.0
75.36,522.0
75.37,494.0
75.38,531.0
75.39,551.0
75.4,558.0
75.41,535.0
75.42,499.0
75.43,555.0
75.44,543.0
75.45,569.0
75.46,557.0
75.47,528.0
75.48,564.0
75.49,508.0
75.5,503.0
75.51,549.0
75.52,532.0
75.53,523.0
75.54,549.0
75.55,516.0
75.56,545.0
75.57,514.0
75.58,582.0
75.59,537.0
75.6,530.0
75.61,544.0
75.62,526.0
75.63,504.0
75.64,505.0
75.65,549.0
75.66,558.0
75.67,535.0
75.68,557.0
75.69,533.0
75.7,531.0
75.71,513.0
75.72,528.0
75.73,545.0
75.74,567.0
75.75,523.0
75.76,503.0
75.77,551.0
75.78,565.0
75.79,540.0
75.8,513.0
75.81,557.0
75.82,526.0
75.83,544.0
75.84,587.0
75.85,540.0
75.86,563.0
75.87,587.0
75.88,567.0
75.89,514.0
75.9,552.0
75.91,578.0
75.92,513.0
75.93,553.0
75.94,521.0
75.95,542.0
75.96,504.0
75.97,504.0
75.98,523.0
75.99,540.0
76.0,539.0
76.01,521.0
76.02,540.0
76.03,541.0
76.04,559.0
76.05,556.0
76.06,513.0
76.07,570.0
76.08,542.0
76.09,566.0
76.1,552.0
76.11,552.0
76.12,567.0
76.13,560.0
76.14,525.0
76.15,561.0
76.16,596.0
76.17,589.0
76.18,612.0
76.19,568.0
76.2,601.0
76.21,570.0
76.22,585.0
76.23,560.0
76.24,591.0
76.25,604.0
76.26,549.0
76.27,546.0
76.28,558.0
76.29,514.0
76.3,573.0
76.31,560.0
76.32,556.0
76.33,523.0
76.34,544.0
76.35,540.0
76.36,529.0
76.37,586.0
76.38,549.0
76.39,563.0
76.4,537.0
76.41,511.0
76.42,577.0
76.43,582.0
76.44,528.0
76.45,545.0
76.46,560.0
76.47,554.0
76.48,530.0
76.49,582.0
76.5,546.0
76.51,554.0
76.52,530.0
76.53,581.0
76.54,550.0
76.55,562.0
76.56,534.0
76.57,540.0
76.58,488.0
76.59,519.0
76.6,575.0
76.61,552.0
76.62,584.0
76.63,591.0
76.64,517.0
76.65,477.0
76.66,574.0
76.67,555.0
76.68,571.0
76.69,519.0
76.7,546.0
76.71,557.0
76.72,527.0
76.73,544.0
76.74,574.0
76.75,528.0
76.76,505.0
76.77,530.0
76.78,550.0
76.79,530.0
76.8,518.0
76.81,550.0
76.82,527.0
76.83,550.0
76.84,504.0
76.85,560.0
76.86,547.0
76.87,525.0
76.88,534.0
76.89,542.0
76.9,531.0
76.91,540.0
76.92,529.0
76.93,579.0
76.94,524.0
76.95,570.0
76.96,557.0
76.97,515.0
76.98,517.0
76.99,524.0
77.0,543.0
77.01,541.0
77.02,551.0
77.03,576.0
77.04,553.0
77.05,556.0
77.06,527.0
77.07,511.0
77.08,516.0
77.09,540.0
77.1,590.0
77.11,525.0
77.12,544.0
77.13,574.0
77.14,548.0
77.15,519.0
77.16,513.0
77.17,534.0
77.18,511.0
77.19,550.0
77.2,550.0
77.21,542.0
77.22,504.0
77.23,475.0
77.24,542.0
77.25,546.0
77.26,543.0
77.27,536.0
77.28,553.0
77.29,509.0
77.3,530.0
77.31,535.0
77.32,557.0
77.33,523.0
77.34,588.0
77.35,559.0
77.36,528.0
77.37,491.0
77.38,558.0
77.39,582.0
77.4,512.0
77.41,563.0
77.42,584.0
77.43,552.0
77.44,535.0
77.45,541.0
77.46,529.0
77.47,575.0
77.48,495.0
77.49,501.0
77.5,584.0
77.51,570.0
77.52,565.0
77.53,540.0
77.54,547.0
77.55,519.0
77.56,538.0
77.57,508.0
77.58,577.0
77.59,539.0
77.6,528.0
77.61,539.0
77.62,515.0
77.63,546.0
77.64,479.0
77.65,530.0
77.66,537.0
77.67,560.0
77.68,554.0
77.69,499.0
77.7,512.0
77.71,518.0
77.72,562.0
77.73,511.0
77.74,522.0
77.75,549.0
77.76,508.0
77.77,534.0
77.78,537.0
77.79,540.0
77.8,542.0
77.81,544.0
77.82,536.0
77.83,506.0
77.84,560.0
77.85,513.0
77.86,551.0
77.87,507.0
77.88,591.0
77.89,510.0
77.9,532.0
77.91,558.0
77.92,540.0
77.93,529.0
77.94,551.0
77.95,522.0
77.96,525.0
77.97,536.0
77.98,541.0
77.99,575.0
78.0,525.0
78.01,533.0
78.02,555.0
78.03,527.0
78.04,530.0
78.05,552.0
78.06,587.0
78.07,593.0
78.08,596.0
78.09,615.0
78.1,591.0
78.11,574.0
78.12,602.0
78.13,561.0
78.14,611.0
78.15,528.0
78.16,576.0
78.17,596.0
78.18,547.0
78.19,544.0
78.2,580.0
78.21,584.0
78.22,585.0
78.23,553.0
78.24,591.0
78.25,588.0
78.26,574.0
78.27,575.0
78.28,584.0
78.29,549.0
78.3,576.0
78.31,544.0
78.32,556.0
78.33,557.0
78.34,550.0
78.35,615.0
78.36,577.0
78.37,567.0
78.38,583.0
78.39,605.0
78.4,562.0
78.41,559.0
78.42,572.0
78.43,542.0
78.44,601.0
78.45,521.0
78.46,529.0
78.47,554.0
78.48,536.0
78.49,555.0
78.5,510.0
78.51,571.0
78.52,566.0
78.53,570.0
78.54,573.0
78.55,556.0
78.56,548.0
78.57,531.0
78.58,588.0
78.59,543.0
78.6,523.0
78.61,539.0
78.62,543.0
78.63,581.0
78.64,575.0
78.65,552.0
78.66,530.0
78.67,558.0
78.68,538.0
78.69,582.0
78.7,523.0
78.71,565.0
78.72,530.0
78.73,548.0
78.74,501.0
78.75,538.0
78.76,554.0
78.77,548.0
78.78,566.0
78.79,598.0
78.8,549.0
78.81,531.0
78.82,567.0
78.83,543.0
78.84,492.0
78.85,530.0
78.86,550.0
78.87,524.0
78.88,570.0
78.89,518.0
78.9,536.0
78.91,539.0
78.92,550.0
78.93,538.0
78.94,507.0
78.95,569.0
78.96,492.0
78.97,558.0
78.98,517.0
78.99,519.0
79.0,541.0
79.01,528.0
79.02,558.0
79.03,572.0
79.04,492.0
79.05,564.0
79.06,496.0
79.07,568.0
79.08,513.0
79.09,521.0
79.1,519.0
79.11,534.0
79.12,501.0
79.13,538.0
79.14,521.0
79.15,524.0
79.16,537.0
79.17,527.0
79.18,575.0
79.19,562.0
79.2,540.0
79.21,520.0
79.22,516.0
79.23,539.0
79.24,530.0
79.25,529.0
79.26,552.0
79.27,501.0
79.28,526.0
79.29,508.0
79.3,557.0
79.31,551.0
79.32,530.0
79.33,530.0
79.34,565.0
79.35,541.0
79.36,538.0
79.37,485.0
79.38,533.0
79.39,540.0
79.4,553.0
79.41,554.0
79.42,542.0
79.43,554.0
79.44,547.0
79.45,550.0
79.46,498.0
79.47,540.0
79.48,548.0
79.49,529.0
79.5,576.0
79.51,530.0
79.52,551.0
79.53,511.0
79.54,544.0
79.55,569.0
79.56,570.0
79.57,549.0
79.58,549.0
79.59,517.0
79.6,544.0
79.61,544.0
79.62,547.0
79.63,534.0
79.64,546.0
79.65,518.0
79.66,537.0
79.67,498.0
79.68,558.0
79.69,510.0
79.7,538.0
79.71,547.0
79.72,555.0
79.73,515.0
79.74,525.0
79.75,576.0
79.76,499.0
79.77,536.0
79.78,513.0
79.79,534.0
79.8,538.0
79.81,530.0
79.82,535.0
79.83,529.0
79.84,537.0
79.85,515.0
79.86,502.0
79.87,514.0
79.88,511.0
79.89,527.0
79.9,579.0
79.91,469.0
79.92,548.0
79.93,542.0
79.94,536.0
79.95,557.0
79.96,546.0
79.97,497.0
79.98,541.0
79.99,538.0
80.0,559.0
80.01,539.0
80.02,530.0
80.03,512.0
80.04,504.0
80.05,538.0
80.06,544.0
80.07,509.0
80.08,506.0
80.09,553.0
80.1,535.0
80.11,515.0
80.12,546.0
80.13,469.0
80.14,541.0
80.15,529.0
80.16,550.0
80.17,548.0
80.18,549.0
80.19,549.0
80.2,561.0
80.21,572.0
80.22,565.0
80.23,518.0
80.24,529.0
80.25,564.0
80.26,576.0
80.27,568.0
80.28,535.0
80.29,556.0
80.3,550.0
80.31,508.0
80.32,542.0
80.33,548.0
80.34,562.0
80.35,560.0
80.36,553.0
80.37,564.0
80.38,586.0
80.39,554.0
80.4,561.0
80.41,560.0
80.42,546.0
80.43,527.0
80.44,528.0
80.45,531.0
80.46,528.0
80.47,535.0
80.48,558.0
80.49,541.0
80.5,561.0
80.51,545.0
80.52,519.0
80.53,547.0
80.54,542.0
80.55,550.0
80.56,566.0
80.57,574.0
80.58,580.0
80.59,588.0
80.6,548.0
80.61,546.0
80.62,545.0
80.63,553.0
80.64,532.0
80.65,533.0
80.66,555.0
80.67,559.0
80.68,511.0
80.69,543.0
80.7,550.0
80.71,563.0
80.72,577.0
80.73,515.0
80.74,585.0
80.75,537.0
80.76,559.0
80.77,568.0
80.78,513.0
80.79,527.0
80.8,532.0
80.81,567.0
80.82,542.0
80.83,514.0
80.84,529.0
80.85,556.0
80.86,545.0
80.87,524.0
80.88,528.0
80.89,548.0
80.9,527.0
80.91,537.0
80.92,558.0
80.93,492.0
80.94,524.0
80.95,513.0
80.96,507.0
80.97,563.0
80.98,549.0
80.99,521.0
81.0,504.0
81.01,508.0
81.02,544.0
81.03,541.0
81.04,525.0
81.05,524.0
81.06,513.0
81.07,529.0
81.08,507.0
81.09,526.0
81.1,560.0
81.11,523.0
81.12,558.0
81.13,595.0
81.14,511.0
81.15,544.0
81.16,564.0
81.17,547.0
81.18,520.0
81.19,555.0
81.2,552.0
81.21,529.0
81.22,487.0
81.23,537.0
81.24,552.0
81.25,538.0
81.26,529.0
81.27,546.0
81.28,501.0
81.29,525.0
81.3,505.0
81.31,481.0
81.32,562.0
81.33,553.0
81.34,549.0
81.35,548.0
81.36,556.0
81.37,539.0
81.38,593.0
81.39,544.0
81.4,534.0
81.41,559.0
81.42,557.0
81.43,500.0
81.44,515.0
81.45,522.0
81.46,572.0
81.47,536.0
81.48,533.0
81.49,516.0
81.5,508.0
81.51,519.0
81.52,510.0
81.53,496.0
81.54,573.0
81.55,540.0
81.56,544.0
81.57,575.0
81.58,510.0
81.59,584.0
81.6,569.0
81.61,513.0
81.62,538.0
81.63,530.0
81.64,490.0
81.65,548.0
81.66,532.0
81.67,502.0
81.68,497.0
81.69,550.0
81.7,521.0
81.71,545.0
81.72,514.0
81.73,542.0
81.74,577.0
81.75,524.0
81.76,573.0
81.77,548.0
81.78,515.0
81.79,535.0
81.8,508.0
81.81,532.0
81.82,562.0
81.83,537.0
81.84,533.0
81.85,503.0
81.86,541.0
81.87,572.0
81.88,523.0
81.89,568.0
81.9,567.0
81.91,545.0
81.92,546.0
81.93,562.0
81.94,490.0
81.95,553.0
81.96,522.0
81.97,524.0
81.98,494.0
81.99,552.0
82.0,575.0
82.01,530.0
82.02,547.0
82.03,534.0
82.04,509.0
82.05,539.0
82.06,581.0
82.07,523.0
82.08,501.0
82.09,540.0
82.1,493.0
82.11,530.0
82.12,530.0
82.13,506.0
82.14,521.0
82.15,525.0
82.16,600.0
82.17,512.0
82.18,524.0
82.19,539.0
82.2,517.0
82.21,561.0
82.22,479.0
82.23,531.0
82.24,530.0
82.25,522.0
82.26,537.0
82.27,581.0
82.28,585.0
82.29,490.0
82.3,492.0
82.31,560.0
82.32,524.0
82.33,561.0
82.34,535.0
82.35,538.0
82.36,563.0
82.37,522.0
82.38,512.0
82.39,543.0
82.4,542.0
82.41,557.0
82.42,515.0
82.43,489.0
82.44,554.0
82.45,532.0
82.46,552.0
82.47,576.0
82.48,565.0
82.49,520.0
82.5,508.0
82.51,495.0
82.52,538.0
82.53,572.0
82.54,553.0
82.55,552.0
82.56,528.0
82.57,537.0
82.58,501.0
82.59,492.0
82.6,508.0
82.61,531.0
82.62,504.0
82.63,541.0
82.64,492.0
82.65,541.0
82.66,508.0
82.67,524.0
82.68,554.0
82.69,573.0
82.7,531.0
82.71,542.0
82.72,484.0
82.73,538.0
82.74,551.0
82.75,567.0
82.76,567.0
82.77,484.0
82.78,518.0
82.79,535.0
82.8,541.0
82.81,499.0
82.82,501.0
82.83,556.0
82.84,526.0
82.85,564.0
82.86,535.0
82.87,534.0
82.88,484.0
82.89,515.0
82.9,524.0
82.91,575.0
82.92,542.0
82.93,536.0
82.94,528.0
82.95,571.0
82.96,509.0
82.97,517.0
82.98,543.0
82.99,542.0
83.0,541.0
83.01,542.0
83.02,539.0
83.03,591.0
83.04,520.0
83.05,528.0
83.06,507.0
83.07,564.0
83.08,545.0
83.09,507.0
83.1,515.0
83.11,531.0
83.12,577.0
83.13,583.0
83.14,538.0
83.15,534.0
83.16,528.0
83.17,522.0
83.18,538.0
83.19,508.0
83.2,549.0
83.21,562.0
83.22,530.0
83.23,563.0
83.24,581.0
83.25,540.0
83.26,501.0
83.27,509.0
83.28,561.0
83.29,536.0
83.3,498.0
83.31,540.0
83.32,542.0
83.33,505.0
83.34,561.0
83.35,513.0
83.36,518.0
83.37,531.0
83.38,528.0
83.39,539.0
83.4,552.0
83.41,546.0
83.42,544.0
83.43,551.0
83.44,535.0
83.45,496.0
83.46,529.0
83.47,537.0
83.48,553.0
83.49,529.0
83.5,562.0
83.51,541.0
83.52,500.0
83.53,520.0
83.54,590.0
83.55,534.0
83.56,534.0
83.57,557.0
83.58,559.0
83.59,519.0
83.6,519.0
83.61,547.0
83.62,549.0
83.63,572.0
83.64,596.0
83.65,570.0
83.66,499.0
83.67,550.0
83.68,464.0
83.69,529.0
83.7,539.0
83.71,531.0
83.72,554.0
83.73,537.0
83.74,550.0
83.75,594.0
83.76,503.0
83.77,548.0
83.78,563.0
83.79,552.0
83.8,510.0
83.81,529.0
83.82,585.0
83.83,552.0
83.84,527.0
83.85,530.0
83.86,507.0
83.87,536.0
83.88,550.0
83.89,517.0
83.9,551.0
83.91,538.0
83.92,481.0
83.93,545.0
83.94,524.0
83.95,554.0
83.96,539.0
83.97,475.0
83.98,545.0
83.99,536.0
84.0,541.0
84.01,495.0
84.02,580.0
84.03,511.0
84.04,498.0
84.05,532.0
84.06,557.0
84.07,539.0
84.08,538.0
84.09,483.0
84.1,536.0
84.11,553.0
84.12,552.0
84.13,526.0
84.14,572.0
84.15,531.0
84.16,547.0
84.17,569.0
84.18,544.0
84.19,535.0
84.2,557.0
84.21,557.0
84.22,544.0
84.23,549.0
84.24,526.0
84.25,574.0
84.26,567.0
84.27,560.0
84.28,551.0
84.29,547.0
84.3,544.0
84.31,540.0
84.32,545.0
84.33,547.0
84.34,561.0
84.35,543.0
84.36,568.0
84.37,564.0
84.38,555.0
84.39,578.0
84.4,572.0
84.41,541.0
84.42,565.0
84.43,548.0
84.44,559.0
84.45,549.0
84.46,556.0
84.47,601.0
84.48,549.0
84.49,590.0
84.5,563.0
84.51,609.0
84.52,568.0
84.53,554.0
84.54,621.0
84.55,617.0
84.56,593.0
84.57,620.0
84.58,614.0
84.59,576.0
84.6,583.0
84.61,608.0
84.62,583.0
84.63,570.0
84.64,613.0
84.65,563.0
84.66,569.0
84.67,553.0
84.68,583.0
84.69,595.0
84.7,547.0
84.71,572.0
84.72,568.0
84.73,580.0
84.74,532.0
84.75,538.0
84.76,567.0
84.77,589.0
84.78,571.0
84.79,595.0
84.8,566.0
84.81,560.0
84.82,575.0
84.83,566.0
84.84,582.0
84.85,598.0
84.86,543.0
84.87,581.0
84.88,607.0
84.89,581.0
84.9,587.0
84.91,541.0
84.92,560.0
84.93,594.0
84.94,542.0
84.95,550.0
84.96,531.0
84.97,562.0
84.98,543.0
84.99,563.0
85.0,538.0
85.01,523.0
85.02,544.0
85.03,569.0
85.04,497.0
85.05,557.0
85.06,562.0
85.07,542.0
85.08,558.0
85.09,544.0
85.1,522.0
85.11,546.0
85.12,504.0
85.13,529.0
85.14,516.0
85.15,515.0
85.16,533.0
85.17,534.0
85.18,538.0
85.19,517.0
85.2,514.0
85.21,538.0
85.22,537.0
85.23,548.0
85.24,538.0
85.25,527.0
85.26,529.0
85.27,530.0
85.28,512.0
85.29,571.0
85.3,555.0
85.31,537.0
85.32,568.0
85.33,520.0
85.34,529.0
85.35,480.0
85.36,548.0
85.37,558.0
85.38,523.0
85.39,511.0
85.4,536.0
85.41,557.0
85.42,544.0
85.43,539.0
85.44,537.0
85.45,579.0
85.46,537.0
85.47,564.0
85.48,566.0
85.49,580.0
85.5,564.0
85.51,562.0
85.52,507.0
85.53,535.0
85.54,502.0
85.55,567.0
85.56,529.0
85.57,546.0
85.58,507.0
85.59,542.0
85.6,537.0
85.61,547.0
85.62,581.0
85.63,560.0
85.64,564.0
85.65,551.0
85.66,511.0
85.67,535.0
85.68,495.0
85.69,576.0
85.7,543.0
85.71,552.0
85.72,534.0
85.73,534.0
85.74,550.0
85.75,541.0
85.76,535.0
85.77,549.0
85.78,511.0
85.79,514.0
85.8,533.0
85.81,499.0
85.82,534.0
85.83,569.0
85.84,504.0
85.85,553.0
85.86,552.0
85.87,515.0
85.88,563.0
85.89,533.0
85.9,558.0
85.91,582.0
85.92,513.0
85.93,517.0
85.94,550.0
85.95,546.0
85.96,553.0
85.97,545.0
85.98,553.0
85.99,538.0
86.0,542.0
86.01,534.0
86.02,497.0
86.03,551.0
86.04,520.0
86.05,551.0
86.06,524.0
86.07,496.0
86.08,502.0
86.09,543.0
86.1,516.0
86.11,519.0
86.12,529.0
86.13,560.0
86.14,539.0
86.15,523.0
86.16,561.0
86.17,516.0
86.18,527.0
86.19,493.0
86.2,515.0
86.21,536.0
86.22,565.0
86.23,527.0
86.24,490.0
86.25,498.0
86.26,490.0
86.27,543.0
86.28,549.0
86.29,542.0
86.3,506.0
86.31,517.0
86.32,568.0
86.33,527.0
86.34,513.0
86.35,521.0
86.36,536.0
86.37,545.0
86.38,525.0
86.39,544.0
86.4,480.0
86.41,517.0
86.42,492.0
86.43,526.0
86.44,512.0
86.45,539.0
86.46,555.0
86.47,543.0
86.48,538.0
86.49,518.0
86.5,532.0
86.51,545.0
86.52,531.0
86.53,533.0
86.54,543.0
86.55,567.0
86.56,564.0
86.57,528.0
86.58,527.0
86.59,522.0
86.6,515.0
86.61,541.0
86.62,575.0
86.63,547.0
86.64,529.0
86.65,533.0
86.66,525.0
86.67,523.0
86.68,521.0
86.69,524.0
86.7,504.0
86.71,519.0
86.72,509.0
86.73,524.0
86.74,547.0
86.75,561.0
86.76,576.0
86.77,536.0
86.78,551.0
86.79,519.0
86.8,536.0
86.81,539.0
86.82,560.0
86.83,537.0
86.84,521.0
86.85,516.0
86.86,521.0
86.87,596.0
86.88,530.0
86.89,532.0
86.9,513.0
86.91,551.0
86.92,539.0
86.93,495.0
86.94,508.0
86.95,547.0
86.96,528.0
86.97,533.0
86.98,552.0
86.99,589.0
87.0,534.0
87.01,600.0
87.02,532.0
87.03,562.0
87.04,552.0
87.05,530.0
87.06,515.0
87.07,564.0
87.08,560.0
87.09,535.0
87.1,529.0
87.11,554.0
87.12,550.0
87.13,530.0
87.14,495.0
87.15,552.0
87.16,504.0
87.17,511.0
87.18,530.0
87.19,532.0
87.2,537.0
87.21,574.0
87.22,520.0
87.23,545.0
87.24,540.0
87.25,571.0
87.26,526.0
87.27,548.0
87.28,529.0
87.29,555.0
87.3,535.0
87.31,534.0
87.32,547.0
87.33,559.0
87.34,534.0
87.35,552.0
87.36,525.0
87.37,519.0
87.38,524.0
87.39,515.0
87.4,505.0
87.41,514.0
87.42,516.0
87.43,504.0
87.44,545.0
87.45,543.0
87.46,490.0
87.47,543.0
87.48,538.0
87.49,567.0
87.5,498.0
87.51,534.0
87.52,530.0
87.53,585.0
87.54,558.0
87.55,516.0
87.56,548.0
87.57,476.0
87.58,509.0
87.59,572.0
87.6,546.0
87.61,522.0
87.62,525.0
87.63,547.0
87.64,559.0
87.65,525.0
87.66,552.0
87.67,544.0
87.68,547.0
87.69,510.0
87.7,539.0
87.71,528.0
87.72,543.0
87.73,514.0
87.74,537.0
87.75,507.0
87.76,513.0
87.77,552.0
87.78,540.0
87.79,560.0
87.8,562.0
87.81,545.0
87.82,540.0
87.83,493.0
87.84,531.0
87.85,542.0
87.86,560.0
87.87,524.0
87.88,540.0
87.89,485.0
87.9,542.0
87.91,502.0
87.92,543.0
87.93,578.0
87.94,521.0
87.95,518.0
87.96,525.0
87.97,548.0
87.98,573.0
87.99,569.0
88.0,531.0
88.01,515.0
88.02,547.0
88.03,557.0
88.04,568.0
88.05,539.0
88.06,617.0
88.07,532.0
88.08,571.0
88.09,569.0
88.1,541.0
88.11,543.0
88.12,541.0
88.13,553.0
88.14,548.0
88.15,572.0
88.16,578.0
88.17,591.0
88.18,553.0
88.19,607.0
88.2,515.0
88.21,538.0
88.22,535.0
88.23,577.0
88.24,544.0
88.25,571.0
88.26,601.0
88.27,607.0
88.28,522.0
88.29,584.0
88.3,628.0
88.31,605.0
88.32,629.0
88.33,564.0
88.34,616.0
88.35,583.0
88.36,532.0
88.37,581.0
88.38,573.0
88.39,543.0
88.4,563.0
88.41,538.0
88.42,593.0
88.43,548.0
88.44,581.0
88.45,576.0
88.46,538.0
88.47,522.0
88.48,591.0
88.49,549.0
88.5,520.0
88.51,547.0
88.52,598.0
88.53,558.0
88.54,562.0
88.55,602.0
88.56,525.0
88.57,626.0
88.58,600.0
88.59,606.0
88.6,583.0
88.61,554.0
88.62,546.0
88.63,559.0
88.64,571.0
88.65,588.0
88.66,586.0
88.67,553.0
88.68,578.0
88.69,554.0
88.7,600.0
88.71,576.0
88.72,584.0
88.73,599.0
88.74,594.0
88.75,601.0
88.76,579.0
88.77,537.0
88.78,585.0
88.79,545.0
88.8,575.0
88.81,613.0
88.82,584.0
88.83,542.0
88.84,629.0
88.85,564.0
88.86,576.0
88.87,580.0
88.88,546.0
88.89,537.0
88.9,594.0
88.91,561.0
88.92,606.0
88.93,524.0
88.94,588.0
88.95,559.0
88.96,557.0
88.97,584.0
88.98,589.0
88.99,593.0
89.0,583.0
89.01,572.0
89.02,585.0
89.03,593.0
89.04,587.0
89.05,549.0
89.06,629.0
89.07,517.0
89.08,545.0
89.09,527.0
89.1,542.0
89.11,572.0
89.12,560.0
89.13,552.0
89.14,572.0
89.15,548.0
89.16,544.0
89.17,568.0
89.18,509.0
89.19,570.0
89.2,568.0
89.21,575.0
89.22,587.0
89.23,531.0
89.24,540.0
89.25,536.0
89.26,543.0
89.27,543.0
89.28,524.0
89.29,531.0
89.3,562.0
89.31,569.0
89.32,579.0
89.33,549.0
89.34,574.0
89.35,580.0
89.36,545.0
89.37,573.0
89.38,535.0
89.39,508.0
89.4,538.0
89.41,548.0
89.42,541.0
89.43,533.0
89.44,535.0
89.45,505.0
89.46,581.0
89.47,531.0
89.48,518.0
89.49,509.0
89.5,553.0
89.51,496.0
89.52,545.0
89.53,507.0
89.54,542.0
89.55,524.0
89.56,519.0
89.57,539.0
89.58,541.0
89.59,526.0
89.6,537.0
89.61,571.0
89.62,516.0
89.63,550.0
89.64,563.0
89.65,584.0
89.66,523.0
89.67,560.0
89.68,577.0
89.69,522.0
89.7,531.0
89.71,545.0
89.72,543.0
89.73,549.0
89.74,528.0
89.75,522.0
89.76,509.0
89.77,533.0
89.78,527.0
89.79,552.0
89.8,528.0
89.81,559.0
89.82,485.0
89.83,539.0
89.84,526.0
89.85,542.0
89.86,566.0
89.87,551.0
89.88,520.0
89.89,569.0
89.9,522.0
89.91,559.0
89.92,544.0
89.93,522.0
89.94,518.0
89.95,577.0
89.96,541.0
89.97,545.0
89.98,534.0
89.99,572.0
90.0,534.0
