angle,intensity
5.0,296.0
5.01,297.0
5.02,300.0
5.03,291.0
5.04,322.0
5.05,280.0
5.06,340.0
5.07,281.0
5.08,297.0
5.09,282.0
5.1,285.0
5.11,280.0
5.12,299.0
5.13,306.0
5.14,304.0
5.15,313.0
5.16,282.0
5.17,318.0
5.18,299.0
5.19,288.0
5.2,282.0
5.21,302.0
5.22,330.0
5.23,305.0
5.24,298.0
5.25,298.0
5.26,276.0
5.27,299.0
5.28,315.0
5.29,270.0
5.3,283.0
5.31,333.0
5.32,295.0
5.33,303.0
5.34,293.0
5.35,356.0
5.36,342.0
5.37,329.0
5.38,311.0
5.39,291.0
5.4,313.0
5.41,289.0
5.42,299.0
5.43,296.0
5.44,317.0
5.45,300.0
5.46,331.0
5.47,289.0
5.48,325.0
5.49,296.0
5.5,300.0
5.51,354.0
5.52,325.0
5.53,294.0
5.54,308.0
5.55,295.0
5.56,291.0
5.57,286.0
5.58,310.0
5.59,314.0
5.6,320.0
5.61,295.0
5.62,299.0
5.63,302.0
5.64,338.0
5.65,321.0
5.66,296.0
5.67,323.0
5.68,324.0
5.69,305.0
5.7,302.0
5.71,294.0
5.72,300.0
5.73,311.0
5.74,315.0
5.75,297.0
5.76,302.0
5.77,335.0
5.78,312.0
5.79,303.0
5.8,311.0
5.81,308.0
5.82,333.0
5.83,320.0
5.84,317.0
5.85,308.0
5.86,303.0
5.87,330.0
5.88,312.0
5.89,322.0
5.9,316.0
5.91,334.0
5.92,320.0
5.93,307.0
5.94,314.0
5.95,328.0
5.96,330.0
5.97,316.0
5.98,344.0
5.99,299.0
6.0,294.0
6.01,320.0
6.02,336.0
6.03,290.0
6.04,372.0
6.05,336.0
6.06,301.0
6.07,318.0
6.08,321.0
6.09,310.0
6.1,325.0
6.11,364.0
6.12,319.0
6.13,352.0
6.14,300.0
6.15,334.0
6.16,335.0
6.17,339.0
6.18,322.0
6.19,340.0
6.2,338.0
6.21,339.0
6.22,344.0
6.23,345.0
6.24,315.0
6.25,312.0
6.26,330.0
6.27,356.0
6.28,320.0
6.29,353.0
6.3,334.0
6.31,333.0
6.32,302.0
6.33,355.0
6.34,351.0
6.35,329.0
6.36,340.0
6.37,340.0
6.38,337.0
6.39,322.0
6.4,350.0
6.41,333.0
6.42,364.0
6.43,366.0
6.44,323.0
6.45,325.0
6.46,350.0
6.47,333.0
6.48,310.0
6.49,330.0
6.5,345.0
6.51,376.0
6.52,347.0
6.53,350.0
6.54,355.0
6.55,330.0
6.56,333.0
6.57,346.0
6.58,356.0
6.59,332.0
6.6,322.0
6.61,320.0
6.62,349.0
6.63,334.0
6.64,380.0
6.65,325.0
6.66,368.0
6.67,350.0
6.68,348.0
6.69,348.0
6.7,321.0
6.71,358.0
6.72,347.0
6.73,326.0
6.74,356.0
6.75,354.0
6.76,327.0
6.77,349.0
6.78,347.0
6.79,353.0
6.8,333.0
6.81,343.0
6.82,360.0
6.83,321.0
6.84,347.0
6.85,367.0
6.86,345.0
6.87,351.0
6.88,335.0
6.89,358.0
6.9,300.0
6.91,324.0
6.92,339.0
6.93,356.0
6.94,336.0
6.95,343.0
6.96,355.0
6.97,337.0
6.98,344.0
6.99,362.0
7.0,370.0
7.01,319.0
7.02,346.0
7.03,358.0
7.04,364.0
7.05,335.0
7.06,373.0
7.07,348.0
7.08,363.0
7.09,352.0
7.1,334.0
7.11,339.0
7.12,316.0
7.13,364.0
7.14,375.0
7.15,319.0
7.16,339.0
7.17,344.0
7.18,356.0
7.19,357.0
7.2,342.0
7.21,372.0
7.22,367.0
7.23,348.0
7.24,374.0
7.25,357.0
7.26,383.0
7.27,382.0
7.28,373.0
7.29,357.0
7.3,345.0
7.31,370.0
7.32,343.0
7.33,350.0
7.34,379.0
7.35,378.0
7.36,352.0
7.37,346.0
7.38,357.0
7.39,322.0
7.4,384.0
7.41,342.0
7.42,350.0
7.43,374.0
7.44,382.0
7.45,371.0
7.46,390.0
7.47,360.0
7.48,358.0
7.49,373.0
7.5,329.0
7.51,383.0
7.52,371.0
7.53,377.0
7.54,326.0
7.55,357.0
7.56,352.0
7.57,360.0
7.58,375.0
7.59,361.0
7.6,370.0
7.61,369.0
7.62,364.0
7.63,363.0
7.64,371.0
7.65,379.0
7.66,365.0
7.67,363.0
7.68,369.0
7.69,382.0
7.7,366.0
7.71,367.0
7.72,392.0
7.73,330.0
7.74,340.0
7.75,376.0
7.76,399.0
7.77,368.0
7.78,381.0
7.79,342.0
7.8,397.0
7.81,363.0
7.82,399.0
7.83,356.0
7.84,365.0
7.85,346.0
7.86,370.0
7.87,384.0
7.88,377.0
7.89,369.0
7.9,380.0
7.91,384.0
7.92,369.0
7.93,393.0
7.94,390.0
7.95,366.0
7.96,378.0
7.97,382.0
7.98,367.0
7.99,417.0
8.0,394.0
8.01,381.0
8.02,361.0
8.03,344.0
8.04,374.0
8.05,399.0
8.06,345.0
8.07,404.0
8.08,366.0
8.09,348.0
8.1,399.0
8.11,371.0
8.12,384.0
8.13,375.0
8.14,351.0
8.15,391.0
8.16,376.0
8.17,382.0
8.18,382.0
8.19,380.0
8.2,382.0
8.21,412.0
8.22,417.0
8.23,416.0
8.24,387.0
8.25,381.0
8.26,365.0
8.27,394.0
8.28,363.0
8.29,393.0
8.3,418.0
8.31,409.0
8.32,371.0
8.33,384.0
8.34,403.0
8.35,384.0
8.36,370.0
8.37,392.0
8.38,410.0
8.39,378.0
8.4,364.0
8.41,385.0
8.42,359.0
8.43,375.0
8.44,384.0
8.45,372.0
8.46,366.0
8.47,342.0
8.48,374.0
8.49,391.0
8.5,404.0
8.51,380.0
8.52,368.0
8.53,383.0
8.54,356.0
8.55,347.0
8.56,395.0
8.57,399.0
8.58,382.0
8.59,398.0
8.6,366.0
8.61,374.0
8.62,359.0
8.63,387.0
8.64,339.0
8.65,373.0
8.66,348.0
8.67,376.0
8.68,362.0
8.69,363.0
8.7,376.0
8.71,365.0
8.72,401.0
8.73,367.0
8.74,391.0
8.75,336.0
8.76,363.0
8.77,361.0
8.78,369.0
8.79,376.0
8.8,345.0
8.81,395.0
8.82,346.0
8.83,374.0
8.84,356.0
8.85,372.0
8.86,401.0
8.87,340.0
8.88,417.0
8.89,354.0
8.9,351.0
8.91,365.0
8.92,395.0
8.93,372.0
8.94,399.0
8.95,364.0
8.96,376.0
8.97,440.0
8.98,332.0
8.99,381.0
9.0,417.0
9.01,351.0
9.02,381.0
9.03,384.0
9.04,368.0
9.05,376.0
9.06,370.0
9.07,374.0
9.08,339.0
9.09,403.0
9.1,400.0
9.11,383.0
9.12,361.0
9.13,381.0
9.14,376.0
9.15,372.0
9.16,389.0
9.17,375.0
9.18,399.0
9.19,369.0
9.2,391.0
9.21,351.0
9.22,336.0
9.23,382.0
9.24,373.0
9.25,414.0
9.26,362.0
9.27,375.0
9.28,386.0
9.29,357.0
9.3,371.0
9.31,356.0
9.32,394.0
9.33,376.0
9.34,369.0
9.35,386.0
9.36,398.0
9.37,351.0
9.38,375.0
9.39,395.0
9.4,364.0
9.41,414.0
9.42,425.0
9.43,393.0
9.44,395.0
9.45,357.0
9.46,401.0
9.47,387.0
9.48,407.0
9.49,360.0
9.5,343.0
9.51,399.0
9.52,373.0
9.53,408.0
9.54,384.0
9.55,383.0
9.56,380.0
9.57,388.0
9.58,373.0
9.59,365.0
9.6,393.0
9.61,372.0
9.62,405.0
9.63,375.0
9.64,373.0
9.65,361.0
9.66,396.0
9.67,380.0
9.68,359.0
9.69,373.0
9.7,396.0
9.71,407.0
9.72,391.0
9.73,385.0
9.74,380.0
9.75,414.0
9.76,387.0
9.77,384.0
9.78,382.0
9.79,402.0
9.8,357.0
9.81,383.0
9.82,401.0
9.83,372.0
9.84,394.0
9.85,378.0
9.86,388.0
9.87,366.0
9.88,380.0
9.89,376.0
9.9,370.0
9.91,412.0
9.92,381.0
9.93,372.0
9.94,393.0
9.95,401.0
9.96,363.0
9.97,406.0
9.98,381.0
9.99,365.0
10.0,375.0
10.01,396.0
10.02,366.0
10.03,395.0
10.04,395.0
10.05,348.0
10.06,374.0
10.07,385.0
10.08,401.0
10.09,358.0
10.1,370.0
10.11,426.0
10.12,396.0
10.13,404.0
10.14,384.0
10.15,330.0
10.16,384.0
10.17,388.0
10.18,422.0
10.19,391.0
10.2,360.0
10.21,372.0
10.22,398.0
10.23,372.0
10.24,379.0
10.25,383.0
10.26,414.0
10.27,364.0
10.28,381.0
10.29,387.0
10.3,360.0
10.31,381.0
10.32,378.0
10.33,391.0
10.34,409.0
10.35,405.0
10.36,438.0
10.37,396.0
10.38,399.0
10.39,402.0
10.4,394.0
10.41,411.0
10.42,366.0
10.43,382.0
10.44,347.0
10.45,380.0
10.46,412.0
10.47,405.0
10.48,390.0
10.49,397.0
10.5,360.0
10.51,399.0
10.52,400.0
10.53,411.0
10.54,371.0
10.55,393.0
10.56,384.0
10.57,397.0
10.58,381.0
10.59,392.0
10.6,399.0
10.61,382.0
10.62,420.0
10.63,402.0
10.64,387.0
10.65,415.0
10.66,384.0
10.67,379.0
10.68,411.0
10.69,427.0
10.7,375.0
10.71,360.0
10.72,416.0
10.73,389.0
10.74,412.0
10.75,394.0
10.76,375.0
10.77,410.0
10.78,435.0
10.79,369.0
10.8,388.0
10.81,416.0
10.82,400.0
10.83,407.0
10.84,403.0
10.85,430.0
10.86,352.0
10.87,355.0
10.88,404.0
10.89,407.0
10.9,402.0
10.91,389.0
10.92,411.0
10.93,412.0
10.94,394.0
10.95,408.0
10.96,412.0
10.97,418.0
10.98,376.0
10.99,416.0
11.0,427.0
11.01,383.0
11.02,401.0
11.03,455.0
11.04,474.0
11.05,376.0
11.06,426.0
11.07,388.0
11.08,433.0
11.09,433.0
11.1,405.0
11.11,426.0
11.12,445.0
11.13,416.0
11.14,427.0
11.15,369.0
11.16,407.0
11.17,394.0
11.18,392.0
11.19,407.0
11.2,379.0
11.21,406.0
11.22,409.0
11.23,423.0
11.24,431.0
11.25,416.0
11.26,413.0
11.27,411.0
11.28,444.0
11.29,397.0
11.3,373.0
11.31,431.0
11.32,430.0
11.33,417.0
11.34,418.0
11.35,435.0
11.36,400.0
11.37,389.0
11.38,408.0
11.39,426.0
11.4,425.0
11.41,421.0
11.42,414.0
11.43,448.0
11.44,395.0
11.45,375.0
11.46,398.0
11.47,404.0
11.48,377.0
11.49,411.0
11.5,435.0
11.51,420.0
11.52,411.0
11.53,404.0
11.54,435.0
11.55,424.0
11.56,380.0
11.57,412.0
11.58,398.0
11.59,440.0
11.6,415.0
11.61,419.0
11.62,426.0
11.63,392.0
11.64,423.0
11.65,457.0
11.66,410.0
11.67,390.0
11.68,421.0
11.69,401.0
11.7,391.0
11.71,417.0
11.72,385.0
11.73,436.0
11.74,430.0
11.75,412.0
11.76,414.0
11.77,434.0
11.78,411.0
11.79,427.0
11.8,388.0
11.81,387.0
11.82,396.0
11.83,410.0
11.84,419.0
11.85,423.0
11.86,423.0
11.87,440.0
11.88,450.0
11.89,417.0
11.9,444.0
11.91,406.0
11.92,435.0
11.93,440.0
11.94,402.0
11.95,377.0
11.96,434.0
11.97,424.0
11.98,422.0
11.99,428.0
12.0,419.0
12.01,405.0
12.02,429.0
12.03,427.0
12.04,455.0
12.05,416.0
12.06,403.0
12.07,427.0
12.08,418.0
12.09,433.0
12.1,451.0
12.11,419.0
12.12,401.0
12.13,430.0
12.14,379.0
12.15,409.0
12.16,417.0
12.17,434.0
12.18,425.0
12.19,441.0
12.2,471.0
12.21,454.0
12.22,430.0
12.23,430.0
12.24,446.0
12.25,470.0
12.26,451.0
12.27,458.0
12.28,429.0
12.29,431.0
12.3,409.0
12.31,448.0
12.32,416.0
12.33,390.0
12.34,475.0
12.35,423.0
12.36,431.0
12.37,465.0
12.38,461.0
12.39,416.0
12.4,428.0
12.41,403.0
12.42,427.0
12.43,419.0
12.44,448.0
12.45,444.0
12.46,469.0
12.47,454.0
12.48,439.0
12.49,412.0
12.5,431.0
12.51,417.0
12.52,410.0
12.53,437.0
12.54,420.0
12.55,424.0
12.56,449.0
12.57,445.0
12.58,447.0
12.59,438.0
12.6,467.0
12.61,432.0
12.62,442.0
12.63,442.0
12.64,448.0
12.65,440.0
12.66,446.0
12.67,416.0
12.68,441.0
12.69,425.0
12.7,433.0
12.71,443.0
12.72,470.0
12.73,437.0
12.74,433.0
12.75,423.0
12.76,419.0
12.77,435.0
12.78,395.0
12.79,442.0
12.8,408.0
12.81,459.0
12.82,417.0
12.83,444.0
12.84,403.0
12.85,397.0
12.86,461.0
12.87,471.0
12.88,438.0
12.89,462.0
12.9,445.0
12.91,423.0
12.92,448.0
12.93,453.0
12.94,460.0
12.95,476.0
12.96,473.0
12.97,428.0
12.98,409.0
12.99,459.0
13.0,458.0
13.01,397.0
13.02,438.0
13.03,436.0
13.04,423.0
13.05,478.0
13.06,453.0
13.07,457.0
13.08,419.0
13.09,444.0
13.1,444.0
13.11,475.0
13.12,454.0
13.13,447.0
13.14,414.0
13.15,479.0
13.16,479.0
13.17,462.0
13.18,412.0
13.19,441.0
13.2,441.0
13.21,432.0
13.22,428.0
13.23,418.0
13.24,436.0
13.25,434.0
13.26,465.0
13.27,431.0
13.28,472.0
13.29,436.0
13.3,424.0
13.31,445.0
13.32,437.0
13.33,505.0
13.34,444.0
13.35,441.0
13.36,440.0
13.37,434.0
13.38,414.0
13.39,447.0
13.4,460.0
13.41,444.0
13.42,474.0
13.43,438.0
13.44,435.0
13.45,466.0
13.46,433.0
13.47,421.0
13.48,430.0
13.49,438.0
13.5,437.0
13.51,438.0
13.52,424.0
13.53,456.0
13.54,431.0
13.55,447.0
13.56,457.0
13.57,455.0
13.58,450.0
13.59,419.0
13.6,425.0
13.61,445.0
13.62,430.0
13.63,458.0
13.64,462.0
13.65,435.0
13.66,441.0
13.67,458.0
13.68,420.0
13.69,431.0
13.7,428.0
13.71,441.0
13.72,467.0
13.73,434.0
13.74,456.0
13.75,453.0
13.76,467.0
13.77,431.0
13.78,463.0
13.79,417.0
13.8,441.0
13.81,459.0
13.82,419.0
13.83,439.0
13.84,462.0
13.85,437.0
13.86,445.0
13.87,481.0
13.88,416.0
13.89,436.0
13.9,410.0
13.91,409.0
13.92,412.0
13.93,434.0
13.94,399.0
13.95,446.0
13.96,429.0
13.97,479.0
13.98,446.0
13.99,441.0
14.0,423.0
14.01,456.0
14.02,441.0
14.03,402.0
14.04,414.0
14.05,444.0
14.06,422.0
14.07,425.0
14.08,445.0
14.09,429.0
14.1,472.0
14.11,432.0
14.12,450.0
14.13,434.0
14.14,412.0
14.15,436.0
14.16,404.0
14.17,429.0
14.18,394.0
14.19,432.0
14.2,428.0
14.21,402.0
14.22,421.0
14.23,411.0
14.24,429.0
14.25,430.0
14.26,428.0
14.27,435.0
14.28,410.0
14.29,458.0
14.3,443.0
14.31,402.0
14.32,479.0
14.33,439.0
14.34,438.0
14.35,456.0
14.36,433.0
14.37,417.0
14.38,431.0
14.39,424.0
14.4,486.0
14.41,430.0
14.42,394.0
14.43,409.0
14.44,423.0
14.45,461.0
14.46,455.0
14.47,443.0
14.48,384.0
14.49,419.0
14.5,412.0
14.51,449.0
14.52,431.0
14.53,388.0
14.54,414.0
14.55,438.0
14.56,392.0
14.57,417.0
14.58,424.0
14.59,417.0
14.6,447.0
14.61,411.0
14.62,439.0
14.63,390.0
14.64,416.0
14.65,416.0
14.66,431.0
14.67,436.0
14.68,388.0
14.69,419.0
14.7,434.0
14.71,423.0
14.72,386.0
14.73,453.0
14.74,440.0
14.75,458.0
14.76,418.0
14.77,440.0
14.78,432.0
14.79,458.0
14.8,414.0
14.81,440.0
14.82,433.0
14.83,425.0
14.84,400.0
14.85,421.0
14.86,408.0
14.87,462.0
14.88,434.0
14.89,451.0
14.9,442.0
14.91,413.0
14.92,447.0
14.93,434.0
14.94,420.0
14.95,449.0
14.96,426.0
14.97,446.0
14.98,399.0
14.99,409.0
15.0,398.0
15.01,433.0
15.02,423.0
15.03,430.0
15.04,411.0
15.05,429.0
15.06,423.0
15.07,460.0
15.08,393.0
15.09,424.0
15.1,434.0
15.11,445.0
15.12,395.0
15.13,402.0
15.14,423.0
15.15,435.0
15.16,425.0
15.17,415.0
15.18,434.0
15.19,425.0
15.2,440.0
15.21,426.0
15.22,419.0
15.23,419.0
15.24,390.0
15.25,438.0
15.26,436.0
15.27,459.0
15.28,427.0
15.29,430.0
15.3,425.0
15.31,395.0
15.32,426.0
15.33,430.0
15.34,429.0
15.35,422.0
15.36,457.0
15.37,462.0
15.38,423.0
15.39,410.0
15.4,430.0
15.41,421.0
15.42,444.0
15.43,418.0
15.44,447.0
15.45,448.0
15.46,432.0
15.47,397.0
15.48,425.0
15.49,419.0
15.5,398.0
15.51,438.0
15.52,439.0
15.53,436.0
15.54,433.0
15.55,432.0
15.56,437.0
15.57,460.0
15.58,401.0
15.59,416.0
15.6,448.0
15.61,390.0
15.62,433.0
15.63,445.0
15.64,466.0
15.65,468.0
15.66,423.0
15.67,430.0
15.68,434.0
15.69,411.0
15.7,424.0
15.71,444.0
15.72,454.0
15.73,437.0
15.74,458.0
15.75,424.0
15.76,458.0
15.77,426.0
15.78,412.0
15.79,432.0
15.8,421.0
15.81,425.0
15.82,402.0
15.83,438.0
15.84,448.0
15.85,442.0
15.86,445.0
15.87,444.0
15.88,409.0
15.89,450.0
15.9,424.0
15.91,424.0
15.92,417.0
15.93,428.0
15.94,438.0
15.95,437.0
15.96,417.0
15.97,387.0
15.98,415.0
15.99,442.0
16.0,436.0
16.01,437.0
16.02,416.0
16.03,430.0
16.04,439.0
16.05,405.0
16.06,420.0
16.07,452.0
16.08,433.0
16.09,384.0
16.1,436.0
16.11,445.0
16.12,438.0
16.13,409.0
16.14,420.0
16.15,399.0
16.16,447.0
16.17,466.0
16.18,459.0
16.19,438.0
16.2,401.0
16.21,440.0
16.22,422.0
16.23,424.0
16.24,420.0
16.25,410.0
16.26,419.0
16.27,421.0
16.28,423.0
16.29,419.0
16.3,401.0
16.31,448.0
16.32,444.0
16.33,433.0
16.34,405.0
16.35,396.0
16.36,410.0
16.37,389.0
16.38,407.0
16.39,472.0
16.4,416.0
16.41,434.0
16.42,392.0
16.43,445.0
16.44,403.0
16.45,425.0
16.46,452.0
16.47,422.0
16.48,433.0
16.49,427.0
16.5,417.0
16.51,401.0
16.52,439.0
16.53,439.0
16.54,429.0
16.55,404.0
16.56,454.0
16.57,401.0
16.58,426.0
16.59,403.0
16.6,410.0
16.61,390.0
16.62,435.0
16.63,399.0
16.64,403.0
16.65,436.0
16.66,427.0
16.67,420.0
16.68,426.0
16.69,415.0
16.7,445.0
16.71,419.0
16.72,410.0
16.73,410.0
16.74,400.0
16.75,423.0
16.76,415.0
16.77,427.0
16.78,422.0
16.79,443.0
16.8,485.0
16.81,454.0
16.82,410.0
16.83,406.0
16.84,388.0
16.85,378.0
16.86,435.0
16.87,402.0
16.88,393.0
16.89,410.0
16.9,471.0
16.91,387.0
16.92,392.0
16.93,419.0
16.94,422.0
16.95,423.0
16.96,412.0
16.97,470.0
16.98,432.0
16.99,436.0
17.0,432.0
17.01,432.0
17.02,465.0
17.03,410.0
17.04,398.0
17.05,425.0
17.06,432.0
17.07,409.0
17.08,439.0
17.09,433.0
17.1,436.0
17.11,429.0
17.12,411.0
17.13,442.0
17.14,416.0
17.15,398.0
17.16,426.0
17.17,442.0
17.18,428.0
17.19,388.0
17.2,409.0
17.21,434.0
17.22,437.0
17.23,380.0
17.24,374.0
17.25,430.0
17.26,424.0
17.27,411.0
17.28,386.0
17.29,438.0
17.3,401.0
17.31,410.0
17.32,409.0
17.33,437.0
17.34,401.0
17.35,438.0
17.36,429.0
17.37,428.0
17.38,422.0
17.39,444.0
17.4,392.0
17.41,404.0
17.42,393.0
17.43,422.0
17.44,455.0
17.45,394.0
17.46,421.0
17.47,412.0
17.48,436.0
17.49,463.0
17.5,391.0
17.51,443.0
17.52,429.0
17.53,440.0
17.54,434.0
17.55,403.0
17.56,434.0
17.57,404.0
17.58,408.0
17.59,403.0
17.6,416.0
17.61,438.0
17.62,392.0
17.63,417.0
17.64,410.0
17.65,412.0
17.66,412.0
17.67,383.0
17.68,463.0
17.69,431.0
17.7,398.0
17.71,414.0
17.72,398.0
17.73,381.0
17.74,418.0
17.75,386.0
17.76,426.0
17.77,433.0
17.78,397.0
17.79,435.0
17.8,416.0
17.81,405.0
17.82,411.0
17.83,402.0
17.84,389.0
17.85,401.0
17.86,438.0
17.87,394.0
17.88,409.0
17.89,372.0
17.9,399.0
17.91,456.0
17.92,403.0
17.93,444.0
17.94,442.0
17.95,439.0
17.96,430.0
17.97,404.0
17.98,412.0
17.99,414.0
18.0,395.0
18.01,399.0
18.02,391.0
18.03,412.0
18.04,413.0
18.05,406.0
18.06,384.0
18.07,417.0
18.08,414.0
18.09,403.0
18.1,394.0
18.11,398.0
18.12,403.0
18.13,397.0
18.14,421.0
18.15,427.0
18.16,394.0
18.17,395.0
18.18,430.0
18.19,436.0
18.2,418.0
18.21,367.0
18.22,445.0
18.23,404.0
18.24,390.0
18.25,404.0
18.26,449.0
18.27,384.0
18.28,418.0
18.29,414.0
18.3,413.0
18.31,396.0
18.32,382.0
18.33,402.0
18.34,422.0
18.35,403.0
18.36,432.0
18.37,418.0
18.38,382.0
18.39,398.0
18.4,418.0
18.41,445.0
18.42,415.0
18.43,386.0
18.44,431.0
18.45,396.0
18.46,412.0
18.47,403.0
18.48,382.0
18.49,390.0
18.5,380.0
18.51,414.0
18.52,404.0
18.53,435.0
18.54,422.0
18.55,423.0
18.56,389.0
18.57,449.0
18.58,415.0
18.59,401.0
18.6,382.0
18.61,391.0
18.62,415.0
18.63,404.0
18.64,431.0
18.65,409.0
18.66,450.0
18.67,427.0
18.68,426.0
18.69,407.0
18.7,414.0
18.71,420.0
18.72,422.0
18.73,425.0
18.74,415.0
18.75,445.0
18.76,368.0
18.77,444.0
18.78,405.0
18.79,399.0
18.8,402.0
18.81,403.0
18.82,402.0
18.83,365.0
18.84,419.0
18.85,390.0
18.86,426.0
18.87,433.0
18.88,384.0
18.89,412.0
18.9,371.0
18.91,407.0
18.92,399.0
18.93,399.0
18.94,429.0
18.95,410.0
18.96,385.0
18.97,390.0
18.98,396.0
18.99,413.0
19.0,389.0
19.01,424.0
19.02,403.0
19.03,419.0
19.04,405.0
19.05,402.0
19.06,380.0
19.07,409.0
19.08,438.0
19.09,426.0
19.1,420.0
19.11,421.0
19.12,409.0
19.13,370.0
19.14,384.0
19.15,451.0
19.16,409.0
19.17,403.0
19.18,432.0
19.19,426.0
19.2,401.0
19.21,416.0
19.22,443.0
19.23,404.0
19.24,401.0
19.25,440.0
19.26,403.0
19.27,416.0
19.28,435.0
19.29,406.0
19.3,403.0
19.31,412.0
19.32,434.0
19.33,408.0
19.34,420.0
19.35,432.0
19.36,447.0
19.37,414.0
19.38,438.0
19.39,395.0
19.4,379.0
19.41,463.0
19.42,412.0
19.43,454.0
19.44,380.0
19.45,381.0
19.46,415.0
19.47,411.0
19.48,408.0
19.49,413.0
19.5,423.0
19.51,408.0
19.52,397.0
19.53,445.0
19.54,422.0
19.55,401.0
19.56,424.0
19.57,431.0
19.58,426.0
19.59,402.0
19.6,429.0
19.61,444.0
19.62,386.0
19.63,394.0
19.64,428.0
19.65,428.0
19.66,429.0
19.67,391.0
19.68,406.0
19.69,403.0
19.7,407.0
19.71,426.0
19.72,383.0
19.73,422.0
19.74,394.0
19.75,417.0
19.76,419.0
19.77,427.0
19.78,429.0
19.79,402.0
19.8,401.0
19.81,413.0
19.82,429.0
19.83,434.0
19.84,422.0
19.85,390.0
19.86,401.0
19.87,377.0
19.88,382.0
19.89,406.0
19.9,384.0
19.91,464.0
19.92,407.0
19.93,407.0
19.94,440.0
19.95,403.0
19.96,411.0
19.97,433.0
19.98,408.0
19.99,433.0
20.0,429.0
20.01,434.0
20.02,413.0
20.03,393.0
20.04,425.0
20.05,422.0
20.06,414.0
20.07,407.0
20.08,429.0
20.09,380.0
20.1,427.0
20.11,448.0
20.12,405.0
20.13,433.0
20.14,411.0
20.15,413.0
20.16,442.0
20.17,401.0
20.18,420.0
20.19,410.0
20.2,390.0
20.21,395.0
20.22,435.0
20.23,430.0
20.24,424.0
20.25,403.0
20.26,404.0
20.27,415.0
20.28,434.0
20.29,414.0
20.3,366.0
20.31,399.0
20.32,405.0
20.33,397.0
20.34,396.0
20.35,401.0
20.36,434.0
20.37,405.0
20.38,446.0
20.39,413.0
20.4,388.0
20.41,410.0
20.42,403.0
20.43,405.0
20.44,391.0
20.45,418.0
20.46,382.0
20.47,406.0
20.48,419.0
20.49,437.0
20.5,453.0
20.51,425.0
20.52,417.0
20.53,398.0
20.54,399.0
20.55,409.0
20.56,385.0
20.57,393.0
20.58,431.0
20.59,427.0
20.6,407.0
20.61,433.0
20.62,406.0
20.63,401.0
20.64,426.0
20.65,393.0
20.66,424.0
20.67,409.0
20.68,411.0
20.69,414.0
20.7,398.0
20.71,423.0
20.72,429.0
20.73,442.0
20.74,380.0
20.75,401.0
20.76,398.0
20.77,356.0
20.78,436.0
20.79,404.0
20.8,403.0
20.81,442.0
20.82,409.0
20.83,384.0
20.84,404.0
20.85,434.0
20.86,430.0
20.87,448.0
20.88,399.0
20.89,404.0
20.9,431.0
20.91,427.0
20.92,407.0
20.93,420.0
20.94,417.0
20.95,477.0
20.96,388.0
20.97,434.0
20.98,409.0
20.99,413.0
21.0,423.0
21.01,381.0
21.02,391.0
21.03,420.0
21.04,431.0
21.05,397.0
21.06,407.0
21.07,424.0
21.08,423.0
21.09,400.0
21.1,400.0
21.11,385.0
21.12,407.0
21.13,408.0
21.14,385.0
21.15,425.0
21.16,441.0
21.17,415.0
21.18,374.0
21.19,413.0
21.2,413.0
21.21,416.0
21.22,405.0
21.23,369.0
21.24,414.0
21.25,405.0
21.26,390.0
21.27,419.0
21.28,416.0
21.29,392.0
21.3,395.0
21.31,402.0
21.32,421.0
21.33,396.0
21.34,392.0
21.35,431.0
21.36,418.0
21.37,377.0
21.38,435.0
21.39,415.0
21.4,419.0
21.41,378.0
21.42,401.0
21.43,384.0
21.44,367.0
21.45,442.0
21.46,367.0
21.47,384.0
21.48,429.0
21.49,442.0
21.5,392.0
21.51,398.0
21.52,374.0
21.53,433.0
21.54,449.0
21.55,407.0
21.56,358.0
21.57,399.0
21.58,426.0
21.59,413.0
21.6,407.0
21.61,434.0
21.62,392.0
21.63,412.0
21.64,410.0
21.65,369.0
21.66,368.0
21.67,420.0
21.68,424.0
21.69,429.0
21.7,404.0
21.71,392.0
21.72,403.0
21.73,391.0
21.74,362.0
21.75,418.0
21.76,392.0
21.77,410.0
21.78,444.0
21.79,422.0
21.8,381.0
21.81,364.0
21.82,390.0
21.83,425.0
21.84,396.0
21.85,385.0
21.86,380.0
21.87,427.0
21.88,432.0
21.89,379.0
21.9,420.0
21.91,432.0
21.92,417.0
21.93,401.0
21.94,442.0
21.95,397.0
21.96,404.0
21.97,422.0
21.98,437.0
21.99,397.0
22.0,426.0
22.01,429.0
22.02,383.0
22.03,414.0
22.04,443.0
22.05,429.0
22.06,420.0
22.07,432.0
22.08,402.0
22.09,387.0
22.1,408.0
22.11,433.0
22.12,380.0
22.13,386.0
22.14,424.0
22.15,412.0
22.16,381.0
22.17,425.0
22.18,398.0
22.19,406.0
22.2,397.0
22.21,397.0
22.22,376.0
22.23,400.0
22.24,427.0
22.25,408.0
22.26,420.0
22.27,444.0
22.28,378.0
22.29,420.0
22.3,389.0
22.31,412.0
22.32,407.0
22.33,409.0
22.34,419.0
22.35,426.0
22.36,374.0
22.37,421.0
22.38,426.0
22.39,400.0
22.4,424.0
22.41,405.0
22.42,393.0
22.43,389.0
22.44,400.0
22.45,419.0
22.46,408.0
22.47,392.0
22.48,415.0
22.49,419.0
22.5,365.0
22.51,409.0
22.52,398.0
22.53,443.0
22.54,394.0
22.55,379.0
22.56,436.0
22.57,402.0
22.58,424.0
22.59,393.0
22.6,417.0
22.61,391.0
22.62,417.0
22.63,402.0
22.64,394.0
22.65,431.0
22.66,413.0
22.67,434.0
22.68,389.0
22.69,393.0
22.7,396.0
22.71,375.0
22.72,413.0
22.73,399.0
22.74,426.0
22.75,387.0
22.76,393.0
22.77,408.0
22.78,422.0
22.79,386.0
22.8,383.0
22.81,379.0
22.82,438.0
22.83,378.0
22.84,418.0
22.85,372.0
22.86,394.0
22.87,412.0
22.88,399.0
22.89,398.0
22.9,391.0
22.91,399.0
22.92,391.0
22.93,402.0
22.94,392.0
22.95,398.0
22.96,391.0
22.97,405.0
22.98,421.0
22.99,409.0
23.0,422.0
23.01,414.0
23.02,382.0
23.03,423.0
23.04,405.0
23.05,417.0
23.06,392.0
23.07,376.0
23.08,414.0
23.09,364.0
23.1,421.0
23.11,422.0
23.12,436.0
23.13,387.0
23.14,407.0
23.15,403.0
23.16,418.0
23.17,427.0
23.18,421.0
23.19,391.0
23.2,411.0
23.21,373.0
23.22,385.0
23.23,379.0
23.24,412.0
23.25,429.0
23.26,406.0
23.27,408.0
23.28,386.0
23.29,374.0
23.3,378.0
23.31,390.0
23.32,388.0
23.33,409.0
23.34,394.0
23.35,421.0
23.36,408.0
23.37,437.0
23.38,389.0
23.39,377.0
23.4,413.0
23.41,369.0
23.42,429.0
23.43,399.0
23.44,415.0
23.45,389.0
23.46,398.0
23.47,422.0
23.48,431.0
23.49,425.0
23.5,445.0
23.51,385.0
23.52,395.0
23.53,406.0
23.54,369.0
23.55,434.0
23.56,441.0
23.57,432.0
23.58,409.0
23.59,425.0
23.6,415.0
23.61,440.0
23.62,383.0
23.63,403.0
23.64,372.0
23.65,366.0
23.66,426.0
23.67,436.0
23.68,389.0
23.69,416.0
23.7,395.0
23.71,402.0
23.72,437.0
23.73,375.0
23.74,442.0
23.75,413.0
23.76,384.0
23.77,423.0
23.78,413.0
23.79,436.0
23.8,366.0
23.81,398.0
23.82,391.0
23.83,386.0
23.84,402.0
23.85,403.0
23.86,428.0
23.87,415.0
23.88,404.0
23.89,406.0
23.9,391.0
23.91,369.0
23.92,406.0
23.93,409.0
23.94,415.0
23.95,424.0
23.96,387.0
23.97,419.0
23.98,398.0
23.99,412.0
24.0,412.0
24.01,429.0
24.02,399.0
24.03,431.0
24.04,415.0
24.05,392.0
24.06,421.0
24.07,424.0
24.08,377.0
24.09,432.0
24.1,425.0
24.11,434.0
24.12,401.0
24.13,381.0
24.14,408.0
24.15,411.0
24.16,378.0
24.17,403.0
24.18,373.0
24.19,414.0
24.2,405.0
24.21,409.0
24.22,396.0
24.23,382.0
24.24,397.0
24.25,415.0
24.26,389.0
24.27,416.0
24.28,388.0
24.29,390.0
24.3,393.0
24.31,411.0
24.32,423.0
24.33,366.0
24.34,392.0
24.35,452.0
24.36,403.0
24.37,398.0
24.38,409.0
24.39,385.0
24.4,384.0
24.41,390.0
24.42,360.0
24.43,374.0
24.44,409.0
24.45,386.0
24.46,382.0
24.47,418.0
24.48,441.0
24.49,405.0
24.5,437.0
24.51,406.0
24.52,363.0
24.53,369.0
24.54,362.0
24.55,381.0
24.56,431.0
24.57,420.0
24.58,416.0
24.59,420.0
24.6,399.0
24.61,416.0
24.62,415.0
24.63,387.0
24.64,415.0
24.65,401.0
24.66,396.0
24.67,410.0
24.68,404.0
24.69,406.0
24.7,415.0
24.71,402.0
24.72,426.0
24.73,400.0
24.74,379.0
24.75,399.0
24.76,428.0
24.77,417.0
24.78,365.0
24.79,417.0
24.8,376.0
24.81,387.0
24.82,436.0
24.83,358.0
24.84,399.0
24.85,404.0
24.86,404.0
24.87,398.0
24.88,393.0
24.89,426.0
24.9,420.0
24.91,391.0
24.92,415.0
24.93,404.0
24.94,374.0
24.95,380.0
24.96,438.0
24.97,377.0
24.98,420.0
24.99,421.0
25.0,380.0
25.01,397.0
25.02,438.0
25.03,398.0
25.04,432.0
25.05,428.0
25.06,405.0
25.07,414.0
25.08,406.0
25.09,410.0
25.1,400.0
25.11,405.0
25.12,429.0
25.13,404.0
25.14,388.0
25.15,382.0
25.16,401.0
25.17,393.0
25.18,407.0
25.19,395.0
25.2,417.0
25.21,393.0
25.22,390.0
25.23,388.0
25.24,454.0
25.25,393.0
25.26,399.0
25.27,398.0
25.28,422.0
25.29,407.0
25.3,418.0
25.31,392.0
25.32,412.0
25.33,408.0
25.34,409.0
25.35,383.0
25.36,415.0
25.37,411.0
25.38,393.0
25.39,406.0
25.4,393.0
25.41,418.0
25.42,420.0
25.43,419.0
25.44,416.0
25.45,416.0
25.46,441.0
25.47,437.0
25.48,415.0
25.49,410.0
25.5,390.0
25.51,416.0
25.52,413.0
25.53,417.0
25.54,398.0
25.55,419.0
25.56,400.0
25.57,403.0
25.58,389.0
25.59,416.0
25.6,410.0
25.61,399.0
25.62,451.0
25.63,417.0
25.64,389.0
25.65,406.0
25.66,425.0
25.67,406.0
25.68,405.0
25.69,375.0
25.7,445.0
25.71,371.0
25.72,402.0
25.73,403.0
25.74,401.0
25.75,414.0
25.76,369.0
25.77,412.0
25.78,424.0
25.79,392.0
25.8,395.0
25.81,413.0
25.82,455.0
25.83,449.0
25.84,369.0
25.85,415.0
25.86,390.0
25.87,465.0
25.88,386.0
25.89,438.0
25.9,388.0
25.91,394.0
25.92,413.0
25.93,408.0
25.94,357.0
25.95,429.0
25.96,379.0
25.97,406.0
25.98,408.0
25.99,420.0
26.0,375.0
26.01,401.0
26.02,380.0
26.03,380.0
26.04,420.0
26.05,385.0
26.06,373.0
26.07,394.0
26.08,376.0
26.09,435.0
26.1,395.0
26.11,382.0
26.12,435.0
26.13,420.0
26.14,402.0
26.15,410.0
26.16,397.0
26.17,407.0
26.18,403.0
26.19,369.0
26.2,411.0
26.21,413.0
26.22,420.0
26.23,413.0
26.24,405.0
26.25,415.0
26.26,404.0
26.27,397.0
26.28,416.0
26.29,385.0
26.3,423.0
26.31,390.0
26.32,421.0
26.33,368.0
26.34,401.0
26.35,392.0
26.36,428.0
26.37,412.0
26.38,391.0
26.39,435.0
26.4,434.0
26.41,415.0
26.42,401.0
26.43,407.0
26.44,403.0
26.45,415.0
26.46,428.0
26.47,394.0
26.48,426.0
26.49,449.0
26.5,414.0
26.51,455.0
26.52,413.0
26.53,407.0
26.54,438.0
26.55,404.0
26.56,419.0
26.57,410.0
26.58,421.0
26.59,414.0
26.6,406.0
26.61,414.0
26.62,437.0
26.63,444.0
26.64,458.0
26.65,436.0
26.66,367.0
26.67,403.0
26.68,420.0
26.69,425.0
26.7,406.0
26.71,445.0
26.72,402.0
26.73,392.0
26.74,436.0
26.75,437.0
26.76,426.0
26.77,405.0
26.78,407.0
26.79,423.0
26.8,422.0
26.81,426.0
26.82,438.0
26.83,422.0
26.84,418.0
26.85,412.0
26.86,427.0
26.87,407.0
26.88,432.0
26.89,402.0
26.9,433.0
26.91,460.0
26.92,398.0
26.93,417.0
26.94,421.0
26.95,428.0
26.96,407.0
26.97,398.0
26.98,445.0
26.99,422.0
27.0,433.0
27.01,420.0
27.02,409.0
27.03,417.0
27.04,419.0
27.05,418.0
27.06,425.0
27.07,378.0
27.08,398.0
27.09,379.0
27.1,397.0
27.11,399.0
27.12,396.0
27.13,408.0
27.14,432.0
27.15,426.0
27.16,434.0
27.17,441.0
27.18,414.0
27.19,375.0
27.2,433.0
27.21,433.0
27.22,437.0
27.23,412.0
27.24,407.0
27.25,404.0
27.26,432.0
27.27,412.0
27.28,420.0
27.29,394.0
27.3,391.0
27.31,384.0
27.32,450.0
27.33,399.0
27.34,412.0
27.35,425.0
27.36,411.0
27.37,401.0
27.38,438.0
27.39,437.0
27.4,410.0
27.41,423.0
27.42,402.0
27.43,460.0
27.44,408.0
27.45,408.0
27.46,404.0
27.47,435.0
27.48,408.0
27.49,427.0
27.5,381.0
27.51,407.0
27.52,416.0
27.53,398.0
27.54,435.0
27.55,403.0
27.56,427.0
27.57,435.0
27.58,416.0
27.59,414.0
27.6,424.0
27.61,438.0
27.62,400.0
27.63,429.0
27.64,413.0
27.65,409.0
27.66,393.0
27.67,388.0
27.68,422.0
27.69,447.0
27.7,432.0
27.71,438.0
27.72,450.0
27.73,457.0
27.74,414.0
27.75,447.0
27.76,444.0
27.77,449.0
27.78,403.0
27.79,421.0
27.8,434.0
27.81,459.0
27.82,415.0
27.83,413.0
27.84,438.0
27.85,419.0
27.86,378.0
27.87,399.0
27.88,427.0
27.89,407.0
27.9,445.0
27.91,417.0
27.92,418.0
27.93,412.0
27.94,434.0
27.95,436.0
27.96,417.0
27.97,401.0
27.98,375.0
27.99,412.0
28.0,417.0
28.01,384.0
28.02,447.0
28.03,406.0
28.04,401.0
28.05,445.0
28.06,424.0
28.07,434.0
28.08,403.0
28.09,407.0
28.1,424.0
28.11,422.0
28.12,399.0
28.13,425.0
28.14,432.0
28.15,413.0
28.16,422.0
28.17,389.0
28.18,447.0
28.19,411.0
28.2,415.0
28.21,347.0
28.22,406.0
28.23,437.0
28.24,463.0
28.25,447.0
28.26,412.0
28.27,436.0
28.28,433.0
28.29,430.0
28.3,430.0
28.31,387.0
28.32,407.0
28.33,431.0
28.34,458.0
28.35,432.0
28.36,421.0
28.37,434.0
28.38,409.0
28.39,436.0
28.4,425.0
28.41,418.0
28.42,432.0
28.43,393.0
28.44,428.0
28.45,436.0
28.46,428.0
28.47,492.0
28.48,424.0
28.49,441.0
28.5,421.0
28.51,433.0
28.52,439.0
28.53,403.0
28.54,430.0
28.55,419.0
28.56,422.0
28.57,436.0
28.58,420.0
28.59,395.0
28.6,438.0
28.61,456.0
28.62,409.0
28.63,479.0
28.64,436.0
28.65,417.0
28.66,421.0
28.67,441.0
28.68,420.0
28.69,420.0
28.7,422.0
28.71,482.0
28.72,388.0
28.73,430.0
28.74,431.0
28.75,401.0
28.76,424.0
28.77,429.0
28.78,460.0
28.79,453.0
28.8,437.0
28.81,449.0
28.82,425.0
28.83,405.0
28.84,421.0
28.85,451.0
28.86,457.0
28.87,442.0
28.88,434.0
28.89,395.0
28.9,439.0
28.91,433.0
28.92,438.0
28.93,396.0
28.94,443.0
28.95,411.0
28.96,460.0
28.97,434.0
28.98,394.0
28.99,409.0
29.0,427.0
29.01,410.0
29.02,443.0
29.03,434.0
29.04,427.0
29.05,432.0
29.06,404.0
29.07,431.0
29.08,402.0
29.09,444.0
29.1,441.0
29.11,436.0
29.12,455.0
29.13,435.0
29.14,428.0
29.15,461.0
29.16,462.0
29.17,451.0
29.18,443.0
29.19,482.0
29.2,469.0
29.21,474.0
29.22,497.0
29.23,471.0
29.24,439.0
29.25,447.0
29.26,457.0
29.27,479.0
29.28,491.0
29.29,493.0
29.3,515.0
29.31,503.0
29.32,506.0
29.33,466.0
29.34,533.0
29.35,568.0
29.36,537.0
29.37,586.0
29.38,579.0
29.39,592.0
29.4,609.0
29.41,601.0
29.42,656.0
29.43,680.0
29.44,712.0
29.45,764.0
29.46,850.0
29.47,784.0
29.48,817.0
29.49,835.0
29.5,761.0
29.51,777.0
29.52,744.0
29.53,761.0
29.54,767.0
29.55,717.0
29.56,668.0
29.57,665.0
29.58,651.0
29.59,616.0
29.6,574.0
29.61,552.0
29.62,559.0
29.63,546.0
29.64,517.0
29.65,514.0
29.66,547.0
29.67,520.0
29.68,509.0
29.69,519.0
29.7,504.0
29.71,456.0
29.72,458.0
29.73,482.0
29.74,504.0
29.75,494.0
29.76,442.0
29.77,461.0
29.78,439.0
29.79,430.0
29.8,436.0
29.81,440.0
29.82,440.0
29.83,448.0
29.84,456.0
29.85,450.0
29.86,432.0
29.87,441.0
29.88,445.0
29.89,448.0
29.9,442.0
29.91,451.0
29.92,450.0
29.93,444.0
29.94,452.0
29.95,413.0
29.96,446.0
29.97,427.0
29.98,433.0
29.99,430.0
30.0,415.0
30.01,431.0
30.02,403.0
30.03,458.0
30.04,447.0
30.05,437.0
30.06,404.0
30.07,395.0
30.08,453.0
30.09,426.0
30.1,419.0
30.11,400.0
30.12,434.0
30.13,410.0
30.14,448.0
30.15,427.0
30.16,454.0
30.17,421.0
30.18,406.0
30.19,413.0
30.2,454.0
30.21,416.0
30.22,448.0
30.23,444.0
30.24,417.0
30.25,452.0
30.26,378.0
30.27,408.0
30.28,446.0
30.29,430.0
30.3,419.0
30.31,407.0
30.32,386.0
30.33,422.0
30.34,415.0
30.35,436.0
30.36,428.0
30.37,419.0
30.38,414.0
30.39,471.0
30.4,417.0
30.41,434.0
30.42,415.0
30.43,447.0
30.44,404.0
30.45,394.0
30.46,452.0
30.47,430.0
30.48,442.0
30.49,414.0
30.5,448.0
30.51,409.0
30.52,432.0
30.53,437.0
30.54,430.0
30.55,453.0
30.56,431.0
30.57,439.0
30.58,423.0
30.59,407.0
30.6,383.0
30.61,415.0
30.62,430.0
30.63,403.0
30.64,407.0
30.65,463.0
30.66,440.0
30.67,428.0
30.68,474.0
30.69,428.0
30.7,417.0
30.71,412.0
30.72,439.0
30.73,386.0
30.74,413.0
30.75,413.0
30.76,449.0
30.77,457.0
30.78,428.0
30.79,404.0
30.8,409.0
30.81,407.0
30.82,434.0
30.83,403.0
30.84,434.0
30.85,423.0
30.86,412.0
30.87,425.0
30.88,423.0
30.89,430.0
30.9,445.0
30.91,411.0
30.92,501.0
30.93,380.0
30.94,428.0
30.95,429.0
30.96,419.0
30.97,429.0
30.98,448.0
30.99,430.0
31.0,393.0
31.01,428.0
31.02,444.0
31.03,405.0
31.04,436.0
31.05,420.0
31.06,469.0
31.07,409.0
31.08,432.0
31.09,439.0
31.1,435.0
31.11,446.0
31.12,420.0
31.13,388.0
31.14,449.0
31.15,420.0
31.16,388.0
31.17,412.0
31.18,403.0
31.19,423.0
31.2,430.0
31.21,470.0
31.22,415.0
31.23,465.0
31.24,445.0
31.25,423.0
31.26,406.0
31.27,442.0
31.28,437.0
31.29,423.0
31.3,433.0
31.31,414.0
31.32,429.0
31.33,415.0
31.34,410.0
31.35,443.0
31.36,427.0
31.37,428.0
31.38,433.0
31.39,434.0
31.4,414.0
31.41,401.0
31.42,395.0
31.43,432.0
31.44,417.0
31.45,437.0
31.46,421.0
31.47,417.0
31.48,442.0
31.49,449.0
31.5,428.0
31.51,385.0
31.52,421.0
31.53,403.0
31.54,414.0
31.55,438.0
31.56,395.0
31.57,448.0
31.58,422.0
31.59,410.0
31.6,419.0
31.61,464.0
31.62,448.0
31.63,406.0
31.64,404.0
31.65,404.0
31.66,436.0
31.67,430.0
31.68,400.0
31.69,439.0
31.7,429.0
31.71,426.0
31.72,428.0
31.73,414.0
31.74,418.0
31.75,476.0
31.76,453.0
31.77,410.0
31.78,407.0
31.79,421.0
31.8,396.0
31.81,429.0
31.82,422.0
31.83,393.0
31.84,448.0
31.85,419.0
31.86,445.0
31.87,435.0
31.88,434.0
31.89,435.0
31.9,396.0
31.91,435.0
31.92,417.0
31.93,409.0
31.94,448.0
31.95,408.0
31.96,414.0
31.97,435.0
31.98,407.0
31.99,417.0
32.0,432.0
32.01,419.0
32.02,443.0
32.03,417.0
32.04,442.0
32.05,443.0
32.06,464.0
32.07,426.0
32.08,439.0
32.09,455.0
32.1,413.0
32.11,387.0
32.12,427.0
32.13,423.0
32.14,449.0
32.15,452.0
32.16,423.0
32.17,437.0
32.18,409.0
32.19,415.0
32.2,421.0
32.21,411.0
32.22,408.0
32.23,410.0
32.24,417.0
32.25,438.0
32.26,456.0
32.27,418.0
32.28,424.0
32.29,393.0
32.3,444.0
32.31,415.0
32.32,418.0
32.33,387.0
32.34,410.0
32.35,410.0
32.36,437.0
32.37,411.0
32.38,408.0
32.39,428.0
32.4,391.0
32.41,412.0
32.42,407.0
32.43,415.0
32.44,440.0
32.45,411.0
32.46,436.0
32.47,413.0
32.48,420.0
32.49,386.0
32.5,430.0
32.51,447.0
32.52,440.0
32.53,372.0
32.54,422.0
32.55,465.0
32.56,427.0
32.57,467.0
32.58,421.0
32.59,452.0
32.6,468.0
32.61,470.0
32.62,466.0
32.63,454.0
32.64,408.0
32.65,452.0
32.66,445.0
32.67,485.0
32.68,449.0
32.69,519.0
32.7,529.0
32.71,532.0
32.72,539.0
32.73,522.0
32.74,492.0
32.75,508.0
32.76,473.0
32.77,486.0
32.78,478.0
32.79,449.0
32.8,428.0
32.81,451.0
32.82,477.0
32.83,458.0
32.84,412.0
32.85,448.0
32.86,436.0
32.87,451.0
32.88,440.0
32.89,444.0
32.9,428.0
32.91,434.0
32.92,417.0
32.93,433.0
32.94,447.0
32.95,454.0
32.96,448.0
32.97,458.0
32.98,430.0
32.99,454.0
33.0,451.0
33.01,412.0
33.02,422.0
33.03,407.0
33.04,434.0
33.05,481.0
33.06,459.0
33.07,454.0
33.08,446.0
33.09,405.0
33.1,425.0
33.11,407.0
33.12,479.0
33.13,398.0
33.14,454.0
33.15,457.0
33.16,434.0
33.17,402.0
33.18,409.0
33.19,420.0
33.2,425.0
33.21,428.0
33.22,438.0
33.23,390.0
33.24,430.0
33.25,390.0
33.26,430.0
33.27,407.0
33.28,421.0
33.29,459.0
33.3,444.0
33.31,390.0
33.32,402.0
33.33,389.0
33.34,449.0
33.35,424.0
33.36,448.0
33.37,426.0
33.38,425.0
33.39,455.0
33.4,423.0
33.41,430.0
33.42,430.0
33.43,416.0
33.44,404.0
33.45,418.0
33.46,402.0
33.47,391.0
33.48,384.0
33.49,402.0
33.5,434.0
33.51,423.0
33.52,425.0
33.53,414.0
33.54,424.0
33.55,393.0
33.56,421.0
33.57,450.0
33.58,417.0
33.59,421.0
33.6,441.0
33.61,426.0
33.62,406.0
33.63,418.0
33.64,384.0
33.65,396.0
33.66,432.0
33.67,432.0
33.68,417.0
33.69,425.0
33.7,409.0
33.71,417.0
33.72,457.0
33.73,430.0
33.74,418.0
33.75,443.0
33.76,425.0
33.77,414.0
33.78,445.0
33.79,412.0
33.8,407.0
33.81,407.0
33.82,425.0
33.83,404.0
33.84,445.0
33.85,420.0
33.86,450.0
33.87,420.0
33.88,420.0
33.89,422.0
33.9,425.0
33.91,435.0
33.92,411.0
33.93,422.0
33.94,411.0
33.95,449.0
33.96,427.0
33.97,412.0
33.98,403.0
33.99,408.0
34.0,446.0
34.01,462.0
34.02,435.0
34.03,437.0
34.04,465.0
34.05,423.0
34.06,376.0
34.07,427.0
34.08,404.0
34.09,414.0
34.1,444.0
34.11,434.0
34.12,412.0
34.13,410.0
34.14,402.0
34.15,403.0
34.16,438.0
34.17,409.0
34.18,415.0
34.19,407.0
34.2,444.0
34.21,392.0
34.22,442.0
34.23,395.0
34.24,412.0
34.25,437.0
34.26,415.0
34.27,422.0
34.28,409.0
34.29,409.0
34.3,432.0
34.31,428.0
34.32,437.0
34.33,457.0
34.34,443.0
34.35,399.0
34.36,449.0
34.37,426.0
34.38,398.0
34.39,411.0
34.4,414.0
34.41,383.0
34.42,416.0
34.43,472.0
34.44,443.0
34.45,440.0
34.46,420.0
34.47,414.0
34.48,458.0
34.49,401.0
34.5,446.0
34.51,409.0
34.52,377.0
34.53,417.0
34.54,440.0
34.55,436.0
34.56,431.0
34.57,443.0
34.58,464.0
34.59,448.0
34.6,444.0
34.61,426.0
34.62,396.0
34.63,448.0
34.64,428.0
34.65,437.0
34.66,431.0
34.67,409.0
34.68,457.0
34.69,422.0
34.7,454.0
34.71,444.0
34.72,418.0
34.73,438.0
34.74,453.0
34.75,449.0
34.76,411.0
34.77,448.0
34.78,429.0
34.79,422.0
34.8,413.0
34.81,424.0
34.82,421.0
34.83,476.0
34.84,430.0
34.85,447.0
34.86,430.0
34.87,434.0
34.88,456.0
34.89,464.0
34.9,462.0
34.91,444.0
34.92,497.0
34.93,468.0
34.94,447.0
34.95,455.0
34.96,410.0
34.97,476.0
34.98,433.0
34.99,466.0
35.0,445.0
35.01,447.0
35.02,488.0
35.03,434.0
35.04,521.0
35.05,449.0
35.06,487.0
35.07,490.0
35.08,441.0
35.09,443.0
35.1,522.0
35.11,467.0
35.12,522.0
35.13,482.0
35.14,470.0
35.15,455.0
35.16,459.0
35.17,499.0
35.18,486.0
35.19,485.0
35.2,477.0
35.21,483.0
35.22,487.0
35.23,489.0
35.24,462.0
35.25,444.0
35.26,485.0
35.27,455.0
35.28,472.0
35.29,491.0
35.3,527.0
35.31,485.0
35.32,459.0
35.33,463.0
35.34,502.0
35.35,483.0
35.36,477.0
35.37,477.0
35.38,490.0
35.39,457.0
35.4,485.0
35.41,501.0
35.42,492.0
35.43,465.0
35.44,439.0
35.45,479.0
35.46,504.0
35.47,493.0
35.48,480.0
35.49,505.0
35.5,513.0
35.51,528.0
35.52,473.0
35.53,513.0
35.54,473.0
35.55,507.0
35.56,507.0
35.57,496.0
35.58,508.0
35.59,535.0
35.6,494.0
35.61,530.0
35.62,544.0
35.63,516.0
35.64,501.0
35.65,544.0
35.66,508.0
35.67,526.0
35.68,492.0
35.69,557.0
35.7,534.0
35.71,521.0
35.72,515.0
35.73,562.0
35.74,573.0
35.75,608.0
35.76,528.0
35.77,555.0
35.78,622.0
35.79,593.0
35.8,598.0
35.81,632.0
35.82,596.0
35.83,607.0
35.84,632.0
35.85,640.0
35.86,609.0
35.87,634.0
35.88,653.0
35.89,631.0
35.9,648.0
35.91,699.0
35.92,704.0
35.93,697.0
35.94,711.0
35.95,762.0
35.96,811.0
35.97,782.0
35.98,839.0
35.99,830.0
36.0,815.0
36.01,896.0
36.02,935.0
36.03,911.0
36.04,992.0
36.05,1013.0
36.06,974.0
36.07,1060.0
36.08,1089.0
36.09,1148.0
36.1,1167.0
36.11,1258.0
36.12,1374.0
36.13,1394.0
36.14,1425.0
36.15,1603.0
36.16,1675.0
36.17,1736.0
36.18,1880.0
36.19,1961.0
36.2,2062.0
36.21,2376.0
36.22,2518.0
36.23,2631.0
36.24,2958.0
36.25,3229.0
36.26,3508.0
36.27,3915.0
36.28,4358.0
36.29,4939.0
36.3,5382.0
36.31,5997.0
36.32,6192.0
36.33,6368.0
36.34,6111.0
36.35,6064.0
36.36,5827.0
36.37,5656.0
36.38,5326.0
36.39,5289.0
36.4,5195.0
36.41,5076.0
36.42,4907.0
36.43,4767.0
36.44,4465.0
36.45,4022.0
36.46,3646.0
36.47,3397.0
36.48,3100.0
36.49,2902.0
36.5,2617.0
36.51,2460.0
36.52,2344.0
36.53,2088.0
36.54,1979.0
36.55,1886.0
36.56,1867.0
36.57,1696.0
36.58,1590.0
36.59,1415.0
36.6,1391.0
36.61,1343.0
36.62,1349.0
36.63,1266.0
36.64,1149.0
36.65,1177.0
36.66,1038.0
36.67,1094.0
36.68,976.0
36.69,974.0
36.7,934.0
36.71,931.0
36.72,914.0
36.73,842.0
36.74,831.0
36.75,813.0
36.76,840.0
36.77,750.0
36.78,764.0
36.79,721.0
36.8,758.0
36.81,749.0
36.82,679.0
36.83,652.0
36.84,727.0
36.85,656.0
36.86,665.0
36.87,609.0
36.88,644.0
36.89,676.0
36.9,605.0
36.91,598.0
36.92,584.0
36.93,557.0
36.94,567.0
36.95,555.0
36.96,525.0
36.97,594.0
36.98,568.0
36.99,617.0
37.0,540.0
37.01,532.0
37.02,541.0
37.03,533.0
37.04,506.0
37.05,584.0
37.06,561.0
37.07,532.0
37.08,507.0
37.09,565.0
37.1,528.0
37.11,526.0
37.12,537.0
37.13,497.0
37.14,531.0
37.15,497.0
37.16,482.0
37.17,526.0
37.18,504.0
37.19,502.0
37.2,499.0
37.21,471.0
37.22,485.0
37.23,457.0
37.24,463.0
37.25,494.0
37.26,506.0
37.27,518.0
37.28,499.0
37.29,436.0
37.3,431.0
37.31,480.0
37.32,471.0
37.33,484.0
37.34,451.0
37.35,480.0
37.36,503.0
37.37,485.0
37.38,449.0
37.39,445.0
37.4,458.0
37.41,481.0
37.42,468.0
37.43,475.0
37.44,448.0
37.45,466.0
37.46,476.0
37.47,453.0
37.48,481.0
37.49,445.0
37.5,468.0
37.51,448.0
37.52,452.0
37.53,444.0
37.54,454.0
37.55,452.0
37.56,464.0
37.57,477.0
37.58,420.0
37.59,431.0
37.6,454.0
37.61,455.0
37.62,472.0
37.63,496.0
37.64,423.0
37.65,482.0
37.66,470.0
37.67,418.0
37.68,450.0
37.69,446.0
37.7,456.0
37.71,458.0
37.72,442.0
37.73,450.0
37.74,455.0
37.75,451.0
37.76,449.0
37.77,461.0
37.78,450.0
37.79,468.0
37.8,441.0
37.81,420.0
37.82,457.0
37.83,430.0
37.84,478.0
37.85,466.0
37.86,449.0
37.87,508.0
37.88,458.0
37.89,481.0
37.9,443.0
37.91,473.0
37.92,439.0
37.93,455.0
37.94,425.0
37.95,445.0
37.96,429.0
37.97,450.0
37.98,444.0
37.99,465.0
38.0,480.0
38.01,498.0
38.02,471.0
38.03,424.0
38.04,454.0
38.05,440.0
38.06,416.0
38.07,427.0
38.08,397.0
38.09,420.0
38.1,448.0
38.11,453.0
38.12,449.0
38.13,401.0
38.14,444.0
38.15,495.0
38.16,397.0
38.17,432.0
38.18,449.0
38.19,437.0
38.2,446.0
38.21,446.0
38.22,405.0
38.23,403.0
38.24,460.0
38.25,487.0
38.26,447.0
38.27,449.0
38.28,425.0
38.29,418.0
38.3,486.0
38.31,435.0
38.32,431.0
38.33,417.0
38.34,458.0
38.35,386.0
38.36,433.0
38.37,458.0
38.38,410.0
38.39,435.0
38.4,423.0
38.41,426.0
38.42,449.0
38.43,429.0
38.44,403.0
38.45,419.0
38.46,442.0
38.47,447.0
38.48,457.0
38.49,447.0
38.5,444.0
38.51,461.0
38.52,448.0
38.53,435.0
38.54,438.0
38.55,439.0
38.56,400.0
38.57,440.0
38.58,402.0
38.59,402.0
38.6,437.0
38.61,462.0
38.62,489.0
38.63,411.0
38.64,481.0
38.65,418.0
38.66,439.0
38.67,413.0
38.68,431.0
38.69,424.0
38.7,389.0
38.71,439.0
38.72,420.0
38.73,456.0
38.74,408.0
38.75,442.0
38.76,427.0
38.77,400.0
38.78,434.0
38.79,427.0
38.8,423.0
38.81,383.0
38.82,404.0
38.83,398.0
38.84,428.0
38.85,442.0
38.86,417.0
38.87,397.0
38.88,410.0
38.89,390.0
38.9,449.0
38.91,393.0
38.92,426.0
38.93,451.0
38.94,408.0
38.95,417.0
38.96,432.0
38.97,415.0
38.98,415.0
38.99,477.0
39.0,433.0
39.01,418.0
39.02,437.0
39.03,374.0
39.04,408.0
39.05,394.0
39.06,415.0
39.07,430.0
39.08,436.0
39.09,419.0
39.1,409.0
39.11,485.0
39.12,412.0
39.13,435.0
39.14,447.0
39.15,394.0
39.16,397.0
39.17,397.0
39.18,460.0
39.19,390.0
39.2,401.0
39.21,394.0
39.22,413.0
39.23,420.0
39.24,377.0
39.25,424.0
39.26,394.0
39.27,400.0
39.28,447.0
39.29,411.0
39.3,401.0
39.31,413.0
39.32,415.0
39.33,423.0
39.34,403.0
39.35,429.0
39.36,380.0
39.37,405.0
39.38,398.0
39.39,446.0
39.4,428.0
39.41,421.0
39.42,435.0
39.43,425.0
39.44,441.0
39.45,444.0
39.46,393.0
39.47,407.0
39.48,444.0
39.49,418.0
39.5,413.0
39.51,432.0
39.52,381.0
39.53,405.0
39.54,434.0
39.55,438.0
39.56,450.0
39.57,399.0
39.58,407.0
39.59,406.0
39.6,401.0
39.61,451.0
39.62,439.0
39.63,438.0
39.64,413.0
39.65,390.0
39.66,434.0
39.67,431.0
39.68,439.0
39.69,416.0
39.7,409.0
39.71,438.0
39.72,418.0
39.73,436.0
39.74,423.0
39.75,413.0
39.76,404.0
39.77,387.0
39.78,467.0
39.79,419.0
39.8,428.0
39.81,429.0
39.82,449.0
39.83,441.0
39.84,412.0
39.85,417.0
39.86,404.0
39.87,423.0
39.88,387.0
39.89,434.0
39.9,403.0
39.91,424.0
39.92,413.0
39.93,397.0
39.94,376.0
39.95,422.0
39.96,415.0
39.97,433.0
39.98,392.0
39.99,443.0
40.0,422.0
40.01,455.0
40.02,407.0
40.03,436.0
40.04,436.0
40.05,445.0
40.06,414.0
40.07,403.0
40.08,399.0
40.09,435.0
40.1,391.0
40.11,437.0
40.12,418.0
40.13,377.0
40.14,377.0
40.15,410.0
40.16,448.0
40.17,423.0
40.18,430.0
40.19,419.0
40.2,413.0
40.21,400.0
40.22,408.0
40.23,404.0
40.24,444.0
40.25,459.0
40.26,421.0
40.27,411.0
40.28,457.0
40.29,438.0
40.3,408.0
40.31,401.0
40.32,410.0
40.33,431.0
40.34,459.0
40.35,422.0
40.36,423.0
40.37,414.0
40.38,392.0
40.39,399.0
40.4,434.0
40.41,420.0
40.42,405.0
40.43,434.0
40.44,408.0
40.45,410.0
40.46,424.0
40.47,409.0
40.48,409.0
40.49,425.0
40.5,438.0
40.51,400.0
40.52,438.0
40.53,412.0
40.54,453.0
40.55,385.0
40.56,404.0
40.57,421.0
40.58,453.0
40.59,419.0
40.6,410.0
40.61,396.0
40.62,440.0
40.63,423.0
40.64,394.0
40.65,446.0
40.66,385.0
40.67,426.0
40.68,439.0
40.69,417.0
40.7,421.0
40.71,405.0
40.72,432.0
40.73,426.0
40.74,418.0
40.75,435.0
40.76,470.0
40.77,436.0
40.78,416.0
40.79,438.0
40.8,430.0
40.81,455.0
40.82,439.0
40.83,397.0
40.84,446.0
40.85,451.0
40.86,436.0
40.87,400.0
40.88,446.0
40.89,465.0
40.9,393.0
40.91,422.0
40.92,411.0
40.93,440.0
40.94,420.0
40.95,419.0
40.96,460.0
40.97,437.0
40.98,452.0
40.99,444.0
41.0,443.0
41.01,415.0
41.02,495.0
41.03,464.0
41.04,428.0
41.05,407.0
41.06,428.0
41.07,437.0
41.08,434.0
41.09,441.0
41.1,438.0
41.11,439.0
41.12,418.0
41.13,431.0
41.14,448.0
41.15,426.0
41.16,432.0
41.17,447.0
41.18,420.0
41.19,436.0
41.2,417.0
41.21,417.0
41.22,413.0
41.23,455.0
41.24,451.0
41.25,458.0
41.26,458.0
41.27,414.0
41.28,411.0
41.29,462.0
41.3,477.0
41.31,472.0
41.32,418.0
41.33,480.0
41.34,476.0
41.35,411.0
41.36,452.0
41.37,456.0
41.38,469.0
41.39,439.0
41.4,459.0
41.41,450.0
41.42,462.0
41.43,461.0
41.44,435.0
41.45,446.0
41.46,399.0
41.47,467.0
41.48,473.0
41.49,431.0
41.5,480.0
41.51,488.0
41.52,436.0
41.53,438.0
41.54,483.0
41.55,471.0
41.56,481.0
41.57,480.0
41.58,465.0
41.59,502.0
41.6,460.0
41.61,492.0
41.62,468.0
41.63,490.0
41.64,467.0
41.65,473.0
41.66,501.0
41.67,503.0
41.68,479.0
41.69,485.0
41.7,505.0
41.71,495.0
41.72,470.0
41.73,533.0
41.74,512.0
41.75,506.0
41.76,510.0
41.77,490.0
41.78,542.0
41.79,541.0
41.8,553.0
41.81,580.0
41.82,517.0
41.83,507.0
41.84,558.0
41.85,526.0
41.86,520.0
41.87,568.0
41.88,571.0
41.89,562.0
41.9,595.0
41.91,606.0
41.92,594.0
41.93,630.0
41.94,627.0
41.95,649.0
41.96,644.0
41.97,749.0
41.98,677.0
41.99,695.0
42.0,781.0
42.01,770.0
42.02,800.0
42.03,783.0
42.04,818.0
42.05,835.0
42.06,915.0
42.07,878.0
42.08,842.0
42.09,1001.0
42.1,1005.0
42.11,1051.0
42.12,1140.0
42.13,1177.0
42.14,1245.0
42.15,1393.0
42.16,1437.0
42.17,1505.0
42.18,1699.0
42.19,1663.0
42.2,1779.0
42.21,1794.0
42.22,1791.0
42.23,1793.0
42.24,1783.0
42.25,1707.0
42.26,1779.0
42.27,1751.0
42.28,1669.0
42.29,1549.0
42.3,1625.0
42.31,1601.0
42.32,1504.0
42.33,1596.0
42.34,1429.0
42.35,1384.0
42.36,1326.0
42.37,1266.0
42.38,1163.0
42.39,1095.0
42.4,1113.0
42.41,1001.0
42.42,979.0
42.43,941.0
42.44,920.0
42.45,848.0
42.46,826.0
42.47,812.0
42.48,768.0
42.49,735.0
42.5,731.0
42.51,749.0
42.52,721.0
42.53,683.0
42.54,683.0
42.55,665.0
42.56,691.0
42.57,607.0
42.58,606.0
42.59,590.0
42.6,649.0
42.61,597.0
42.62,582.0
42.63,554.0
42.64,544.0
42.65,523.0
42.66,551.0
42.67,501.0
42.68,597.0
42.69,542.0
42.7,505.0
42.71,505.0
42.72,483.0
42.73,470.0
42.74,527.0
42.75,527.0
42.76,479.0
42.77,537.0
42.78,501.0
42.79,510.0
42.8,463.0
42.81,512.0
42.82,493.0
42.83,482.0
42.84,448.0
42.85,452.0
42.86,462.0
42.87,462.0
42.88,472.0
42.89,484.0
42.9,470.0
42.91,448.0
42.92,456.0
42.93,431.0
42.94,488.0
42.95,407.0
42.96,470.0
42.97,454.0
42.98,427.0
42.99,488.0
43.0,452.0
43.01,465.0
43.02,449.0
43.03,439.0
43.04,443.0
43.05,462.0
43.06,479.0
43.07,472.0
43.08,430.0
43.09,439.0
43.1,426.0
43.11,449.0
43.12,417.0
43.13,431.0
43.14,435.0
43.15,468.0
43.16,434.0
43.17,479.0
43.18,427.0
43.19,468.0
43.2,436.0
43.21,443.0
43.22,426.0
43.23,430.0
43.24,469.0
43.25,429.0
43.26,466.0
43.27,451.0
43.28,418.0
43.29,409.0
43.3,444.0
43.31,465.0
43.32,398.0
43.33,454.0
43.34,452.0
43.35,412.0
43.36,419.0
43.37,447.0
43.38,425.0
43.39,401.0
43.4,432.0
43.41,396.0
43.42,408.0
43.43,403.0
43.44,410.0
43.45,421.0
43.46,424.0
43.47,481.0
43.48,424.0
43.49,409.0
43.5,468.0
43.51,444.0
43.52,419.0
43.53,411.0
43.54,440.0
43.55,416.0
43.56,425.0
43.57,439.0
43.58,447.0
43.59,445.0
43.6,424.0
43.61,436.0
43.62,432.0
43.63,424.0
43.64,411.0
43.65,433.0
43.66,457.0
43.67,460.0
43.68,407.0
43.69,373.0
43.7,411.0
43.71,409.0
43.72,387.0
43.73,381.0
43.74,379.0
43.75,448.0
43.76,398.0
43.77,398.0
43.78,410.0
43.79,405.0
43.8,403.0
43.81,430.0
43.82,369.0
43.83,429.0
43.84,427.0
43.85,372.0
43.86,410.0
43.87,406.0
43.88,429.0
43.89,415.0
43.9,429.0
43.91,393.0
43.92,437.0
43.93,413.0
43.94,414.0
43.95,440.0
43.96,420.0
43.97,420.0
43.98,412.0
43.99,439.0
44.0,375.0
44.01,416.0
44.02,422.0
44.03,413.0
44.04,394.0
44.05,412.0
44.06,414.0
44.07,417.0
44.08,426.0
44.09,392.0
44.1,435.0
44.11,381.0
44.12,385.0
44.13,389.0
44.14,381.0
44.15,399.0
44.16,442.0
44.17,399.0
44.18,389.0
44.19,377.0
44.2,397.0
44.21,414.0
44.22,400.0
44.23,398.0
44.24,394.0
44.25,407.0
44.26,385.0
44.27,380.0
44.28,428.0
44.29,377.0
44.3,393.0
44.31,418.0
44.32,396.0
44.33,374.0
44.34,403.0
44.35,385.0
44.36,398.0
44.37,418.0
44.38,385.0
44.39,413.0
44.4,390.0
44.41,401.0
44.42,370.0
44.43,404.0
44.44,393.0
44.45,411.0
44.46,430.0
44.47,399.0
44.48,401.0
44.49,427.0
44.5,375.0
44.51,393.0
44.52,436.0
44.53,373.0
44.54,377.0
44.55,396.0
44.56,383.0
44.57,412.0
44.58,399.0
44.59,391.0
44.6,401.0
44.61,375.0
44.62,398.0
44.63,395.0
44.64,376.0
44.65,373.0
44.66,376.0
44.67,376.0
44.68,383.0
44.69,399.0
44.7,376.0
44.71,375.0
44.72,412.0
44.73,436.0
44.74,398.0
44.75,429.0
44.76,374.0
44.77,410.0
44.78,407.0
44.79,397.0
44.8,395.0
44.81,391.0
44.82,405.0
44.83,409.0
44.84,398.0
44.85,381.0
44.86,429.0
44.87,422.0
44.88,396.0
44.89,389.0
44.9,377.0
44.91,408.0
44.92,408.0
44.93,387.0
44.94,401.0
44.95,387.0
44.96,360.0
44.97,414.0
44.98,391.0
44.99,420.0
45.0,388.0
45.01,396.0
45.02,396.0
45.03,405.0
45.04,378.0
45.05,357.0
45.06,384.0
45.07,375.0
45.08,377.0
45.09,413.0
45.1,423.0
45.11,373.0
45.12,386.0
45.13,388.0
45.14,397.0
45.15,370.0
45.16,385.0
45.17,358.0
45.18,383.0
45.19,371.0
45.2,398.0
45.21,373.0
45.22,374.0
45.23,394.0
45.24,400.0
45.25,437.0
45.26,391.0
45.27,378.0
45.28,417.0
45.29,378.0
45.3,404.0
45.31,376.0
45.32,435.0
45.33,432.0
45.34,376.0
45.35,362.0
45.36,408.0
45.37,358.0
45.38,382.0
45.39,382.0
45.4,364.0
45.41,386.0
45.42,387.0
45.43,371.0
45.44,417.0
45.45,399.0
45.46,405.0
45.47,396.0
45.48,411.0
45.49,382.0
45.5,412.0
45.51,383.0
45.52,382.0
45.53,401.0
45.54,389.0
45.55,372.0
45.56,389.0
45.57,363.0
45.58,379.0
45.59,362.0
45.6,337.0
45.61,394.0
45.62,380.0
45.63,409.0
45.64,365.0
45.65,367.0
45.66,398.0
45.67,400.0
45.68,369.0
45.69,412.0
45.7,393.0
45.71,418.0
45.72,387.0
45.73,417.0
45.74,398.0
45.75,387.0
45.76,396.0
45.77,389.0
45.78,378.0
45.79,373.0
45.8,391.0
45.81,388.0
45.82,366.0
45.83,364.0
45.84,391.0
45.85,389.0
45.86,399.0
45.87,374.0
45.88,361.0
45.89,375.0
45.9,384.0
45.91,386.0
45.92,425.0
45.93,419.0
45.94,392.0
45.95,384.0
45.96,373.0
45.97,387.0
45.98,440.0
45.99,382.0
46.0,359.0
46.01,428.0
46.02,396.0
46.03,392.0
46.04,384.0
46.05,403.0
46.06,390.0
46.07,423.0
46.08,377.0
46.09,392.0
46.1,374.0
46.11,371.0
46.12,405.0
46.13,363.0
46.14,368.0
46.15,392.0
46.16,390.0
46.17,367.0
46.18,402.0
46.19,360.0
46.2,366.0
46.21,392.0
46.22,358.0
46.23,399.0
46.24,365.0
46.25,377.0
46.26,396.0
46.27,353.0
46.28,420.0
46.29,414.0
46.3,374.0
46.31,414.0
46.32,373.0
46.33,364.0
46.34,398.0
46.35,397.0
46.36,380.0
46.37,342.0
46.38,375.0
46.39,372.0
46.4,369.0
46.41,423.0
46.42,417.0
46.43,364.0
46.44,409.0
46.45,363.0
46.46,417.0
46.47,422.0
46.48,417.0
46.49,388.0
46.5,400.0
46.51,380.0
46.52,370.0
46.53,395.0
46.54,353.0
46.55,375.0
46.56,377.0
46.57,360.0
46.58,354.0
46.59,411.0
46.6,365.0
46.61,377.0
46.62,374.0
46.63,371.0
46.64,336.0
46.65,341.0
46.66,344.0
46.67,388.0
46.68,371.0
46.69,380.0
46.7,400.0
46.71,417.0
46.72,386.0
46.73,371.0
46.74,378.0
46.75,374.0
46.76,364.0
46.77,420.0
46.78,415.0
46.79,401.0
46.8,394.0
46.81,392.0
46.82,368.0
46.83,372.0
46.84,369.0
46.85,367.0
46.86,410.0
46.87,371.0
46.88,384.0
46.89,420.0
46.9,355.0
46.91,364.0
46.92,366.0
46.93,364.0
46.94,416.0
46.95,394.0
46.96,370.0
46.97,404.0
46.98,395.0
46.99,383.0
47.0,388.0
47.01,364.0
47.02,361.0
47.03,396.0
47.04,347.0
47.05,382.0
47.06,377.0
47.07,363.0
47.08,389.0
47.09,373.0
47.1,386.0
47.11,410.0
47.12,424.0
47.13,345.0
47.14,409.0
47.15,379.0
47.16,370.0
47.17,388.0
47.18,384.0
47.19,391.0
47.2,382.0
47.21,360.0
47.22,375.0
47.23,342.0
47.24,358.0
47.25,382.0
47.26,358.0
47.27,342.0
47.28,395.0
47.29,363.0
47.3,353.0
47.31,371.0
47.32,339.0
47.33,363.0
47.34,381.0
47.35,397.0
47.36,372.0
47.37,370.0
47.38,335.0
47.39,364.0
47.4,378.0
47.41,379.0
47.42,367.0
47.43,391.0
47.44,364.0
47.45,387.0
47.46,382.0
47.47,385.0
47.48,407.0
47.49,366.0
47.5,341.0
47.51,399.0
47.52,374.0
47.53,368.0
47.54,369.0
47.55,399.0
47.56,385.0
47.57,363.0
47.58,364.0
47.59,388.0
47.6,398.0
47.61,363.0
47.62,395.0
47.63,393.0
47.64,366.0
47.65,386.0
47.66,337.0
47.67,388.0
47.68,370.0
47.69,390.0
47.7,396.0
47.71,369.0
47.72,379.0
47.73,330.0
47.74,378.0
47.75,419.0
47.76,364.0
47.77,354.0
47.78,384.0
47.79,355.0
47.8,352.0
47.81,381.0
47.82,347.0
47.83,371.0
47.84,352.0
47.85,361.0
47.86,394.0
47.87,357.0
47.88,368.0
47.89,374.0
47.9,370.0
47.91,367.0
47.92,395.0
47.93,344.0
47.94,374.0
47.95,371.0
47.96,396.0
47.97,388.0
47.98,403.0
47.99,346.0
48.0,407.0
48.01,361.0
48.02,392.0
48.03,392.0
48.04,389.0
48.05,354.0
48.06,400.0
48.07,382.0
48.08,384.0
48.09,350.0
48.1,375.0
48.11,377.0
48.12,394.0
48.13,399.0
48.14,352.0
48.15,370.0
48.16,373.0
48.17,325.0
48.18,356.0
48.19,402.0
48.2,386.0
48.21,376.0
48.22,392.0
48.23,379.0
48.24,350.0
48.25,396.0
48.26,352.0
48.27,353.0
48.28,406.0
48.29,377.0
48.3,404.0
48.31,385.0
48.32,378.0
48.33,369.0
48.34,375.0
48.35,397.0
48.36,379.0
48.37,390.0
48.38,353.0
48.39,317.0
48.4,404.0
48.41,367.0
48.42,389.0
48.43,346.0
48.44,356.0
48.45,375.0
48.46,395.0
48.47,372.0
48.48,369.0
48.49,334.0
48.5,375.0
48.51,370.0
48.52,377.0
48.53,368.0
48.54,359.0
48.55,374.0
48.56,376.0
48.57,343.0
48.58,374.0
48.59,362.0
48.6,361.0
48.61,376.0
48.62,346.0
48.63,362.0
48.64,367.0
48.65,401.0
48.66,397.0
48.67,382.0
48.68,375.0
48.69,403.0
48.7,369.0
48.71,379.0
48.72,363.0
48.73,346.0
48.74,354.0
48.75,378.0
48.76,426.0
48.77,377.0
48.78,377.0
48.79,369.0
48.8,394.0
48.81,380.0
48.82,372.0
48.83,400.0
48.84,335.0
48.85,386.0
48.86,348.0
48.87,387.0
48.88,376.0
48.89,400.0
48.9,363.0
48.91,364.0
48.92,398.0
48.93,386.0
48.94,376.0
48.95,403.0
48.96,339.0
48.97,361.0
48.98,346.0
48.99,387.0
49.0,373.0
49.01,390.0
49.02,356.0
49.03,361.0
49.04,394.0
49.05,369.0
49.06,387.0
49.07,361.0
49.08,344.0
49.09,381.0
49.1,370.0
49.11,386.0
49.12,375.0
49.13,319.0
49.14,406.0
49.15,410.0
49.16,389.0
49.17,354.0
49.18,335.0
49.19,359.0
49.2,393.0
49.21,330.0
49.22,386.0
49.23,334.0
49.24,380.0
49.25,397.0
49.26,378.0
49.27,352.0
49.28,355.0
49.29,353.0
49.3,375.0
49.31,394.0
49.32,354.0
49.33,364.0
49.34,352.0
49.35,337.0
49.36,375.0
49.37,377.0
49.38,315.0
49.39,406.0
49.4,377.0
49.41,373.0
49.42,357.0
49.43,365.0
49.44,369.0
49.45,367.0
49.46,395.0
49.47,398.0
49.48,370.0
49.49,412.0
49.5,376.0
49.51,364.0
49.52,358.0
49.53,355.0
49.54,353.0
49.55,358.0
49.56,392.0
49.57,388.0
49.58,341.0
49.59,383.0
49.6,342.0
49.61,369.0
49.62,347.0
49.63,384.0
49.64,361.0
49.65,373.0
49.66,343.0
49.67,396.0
49.68,355.0
49.69,368.0
49.7,362.0
49.71,379.0
49.72,389.0
49.73,396.0
49.74,351.0
49.75,369.0
49.76,352.0
49.77,370.0
49.78,380.0
49.79,373.0
49.8,348.0
49.81,377.0
49.82,354.0
49.83,372.0
49.84,357.0
49.85,363.0
49.86,364.0
49.87,377.0
49.88,338.0
49.89,407.0
49.9,401.0
49.91,375.0
49.92,353.0
49.93,368.0
49.94,375.0
49.95,401.0
49.96,397.0
49.97,385.0
49.98,392.0
49.99,386.0
50.0,370.0
50.01,364.0
50.02,341.0
50.03,392.0
50.04,396.0
50.05,394.0
50.06,382.0
50.07,366.0
50.08,389.0
50.09,381.0
50.1,370.0
50.11,377.0
50.12,360.0
50.13,389.0
50.14,378.0
50.15,362.0
50.16,374.0
50.17,372.0
50.18,355.0
50.19,349.0
50.2,363.0
50.21,383.0
50.22,380.0
50.23,399.0
50.24,374.0
50.25,372.0
50.26,374.0
50.27,347.0
50.28,347.0
50.29,357.0
50.3,345.0
50.31,376.0
50.32,370.0
50.33,381.0
50.34,362.0
50.35,349.0
50.36,378.0
50.37,381.0
50.38,349.0
50.39,381.0
50.4,361.0
50.41,391.0
50.42,349.0
50.43,332.0
50.44,329.0
50.45,358.0
50.46,381.0
50.47,374.0
50.48,379.0
50.49,335.0
50.5,374.0
50.51,373.0
50.52,350.0
50.53,344.0
50.54,355.0
50.55,361.0
50.56,343.0
50.57,389.0
50.58,415.0
50.59,403.0
50.6,357.0
50.61,355.0
50.62,333.0
50.63,357.0
50.64,376.0
50.65,381.0
50.66,336.0
50.67,351.0
50.68,346.0
50.69,365.0
50.7,330.0
50.71,381.0
50.72,417.0
50.73,339.0
50.74,361.0
50.75,336.0
50.76,353.0
50.77,352.0
50.78,400.0
50.79,358.0
50.8,374.0
50.81,342.0
50.82,373.0
50.83,389.0
50.84,368.0
50.85,334.0
50.86,349.0
50.87,373.0
50.88,352.0
50.89,388.0
50.9,376.0
50.91,335.0
50.92,381.0
50.93,382.0
50.94,386.0
50.95,381.0
50.96,394.0
50.97,401.0
50.98,384.0
50.99,375.0
51.0,360.0
51.01,405.0
51.02,328.0
51.03,393.0
51.04,351.0
51.05,401.0
51.06,359.0
51.07,357.0
51.08,347.0
51.09,350.0
51.1,365.0
51.11,351.0
51.12,362.0
51.13,363.0
51.14,319.0
51.15,326.0
51.16,401.0
51.17,345.0
51.18,371.0
51.19,374.0
51.2,369.0
51.21,397.0
51.22,369.0
51.23,348.0
51.24,371.0
51.25,379.0
51.26,343.0
51.27,365.0
51.28,335.0
51.29,376.0
51.3,339.0
51.31,357.0
51.32,396.0
51.33,390.0
51.34,360.0
51.35,416.0
51.36,388.0
51.37,381.0
51.38,384.0
51.39,362.0
51.4,381.0
51.41,359.0
51.42,348.0
51.43,349.0
51.44,340.0
51.45,358.0
51.46,385.0
51.47,383.0
51.48,409.0
51.49,359.0
51.5,351.0
51.51,356.0
51.52,335.0
51.53,396.0
51.54,364.0
51.55,372.0
51.56,368.0
51.57,365.0
51.58,345.0
51.59,376.0
51.6,338.0
51.61,362.0
51.62,374.0
51.63,359.0
51.64,350.0
51.65,381.0
51.66,350.0
51.67,373.0
51.68,342.0
51.69,395.0
51.7,376.0
51.71,401.0
51.72,329.0
51.73,395.0
51.74,357.0
51.75,367.0
51.76,371.0
51.77,349.0
51.78,347.0
51.79,361.0
51.8,317.0
51.81,357.0
51.82,328.0
51.83,319.0
51.84,354.0
51.85,371.0
51.86,357.0
51.87,347.0
51.88,333.0
51.89,402.0
51.9,366.0
51.91,355.0
51.92,369.0
51.93,365.0
51.94,395.0
51.95,333.0
51.96,357.0
51.97,339.0
51.98,398.0
51.99,366.0
52.0,393.0
52.01,363.0
52.02,373.0
52.03,387.0
52.04,390.0
52.05,397.0
52.06,393.0
52.07,392.0
52.08,377.0
52.09,378.0
52.1,326.0
52.11,365.0
52.12,366.0
52.13,399.0
52.14,370.0
52.15,401.0
52.16,395.0
52.17,407.0
52.18,414.0
52.19,397.0
52.2,377.0
52.21,383.0
52.22,385.0
52.23,359.0
52.24,378.0
52.25,382.0
52.26,360.0
52.27,387.0
52.28,374.0
52.29,406.0
52.3,394.0
52.31,429.0
52.32,422.0
52.33,410.0
52.34,404.0
52.35,440.0
52.36,426.0
52.37,413.0
52.38,400.0
52.39,445.0
52.4,373.0
52.41,431.0
52.42,403.0
52.43,416.0
52.44,404.0
52.45,397.0
52.46,376.0
52.47,434.0
52.48,400.0
52.49,412.0
52.5,394.0
52.51,410.0
52.52,354.0
52.53,382.0
52.54,381.0
52.55,403.0
52.56,378.0
52.57,414.0
52.58,412.0
52.59,383.0
52.6,376.0
52.61,418.0
52.62,345.0
52.63,353.0
52.64,410.0
52.65,335.0
52.66,393.0
52.67,379.0
52.68,357.0
52.69,385.0
52.7,393.0
52.71,387.0
52.72,367.0
52.73,357.0
52.74,343.0
52.75,401.0
52.76,407.0
52.77,356.0
52.78,380.0
52.79,358.0
52.8,389.0
52.81,374.0
52.82,358.0
52.83,347.0
52.84,410.0
52.85,345.0
52.86,386.0
52.87,384.0
52.88,366.0
52.89,358.0
52.9,379.0
52.91,404.0
52.92,356.0
52.93,381.0
52.94,365.0
52.95,387.0
52.96,396.0
52.97,330.0
52.98,358.0
52.99,396.0
53.0,340.0
53.01,383.0
53.02,352.0
53.03,379.0
53.04,365.0
53.05,329.0
53.06,371.0
53.07,381.0
53.08,361.0
53.09,366.0
53.1,360.0
53.11,325.0
53.12,371.0
53.13,363.0
53.14,329.0
53.15,365.0
53.16,352.0
53.17,341.0
53.18,350.0
53.19,357.0
53.2,382.0
53.21,374.0
53.22,359.0
53.23,346.0
53.24,391.0
53.25,352.0
53.26,379.0
53.27,360.0
53.28,362.0
53.29,335.0
53.3,373.0
53.31,350.0
53.32,409.0
53.33,394.0
53.34,381.0
53.35,373.0
53.36,363.0
53.37,326.0
53.38,349.0
53.39,367.0
53.4,395.0
53.41,338.0
53.42,343.0
53.43,430.0
53.44,367.0
53.45,359.0
53.46,361.0
53.47,353.0
53.48,362.0
53.49,360.0
53.5,364.0
53.51,363.0
53.52,361.0
53.53,380.0
53.54,365.0
53.55,361.0
53.56,350.0
53.57,336.0
53.58,342.0
53.59,348.0
53.6,348.0
53.61,373.0
53.62,343.0
53.63,371.0
53.64,357.0
53.65,365.0
53.66,360.0
53.67,355.0
53.68,351.0
53.69,354.0
53.7,380.0
53.71,375.0
53.72,341.0
53.73,375.0
53.74,375.0
53.75,358.0
53.76,341.0
53.77,375.0
53.78,369.0
53.79,371.0
53.8,387.0
53.81,356.0
53.82,370.0
53.83,346.0
53.84,366.0
53.85,338.0
53.86,399.0
53.87,356.0
53.88,332.0
53.89,369.0
53.9,357.0
53.91,406.0
53.92,346.0
53.93,363.0
53.94,337.0
53.95,332.0
53.96,383.0
53.97,372.0
53.98,353.0
53.99,359.0
54.0,351.0
54.01,342.0
54.02,393.0
54.03,353.0
54.04,356.0
54.05,375.0
54.06,348.0
54.07,337.0
54.08,384.0
54.09,359.0
54.1,354.0
54.11,348.0
54.12,374.0
54.13,355.0
54.14,341.0
54.15,354.0
54.16,359.0
54.17,341.0
54.18,356.0
54.19,355.0
54.2,345.0
54.21,382.0
54.22,335.0
54.23,354.0
54.24,372.0
54.25,318.0
54.26,356.0
54.27,371.0
54.28,348.0
54.29,388.0
54.3,324.0
54.31,383.0
54.32,365.0
54.33,348.0
54.34,336.0
54.35,351.0
54.36,382.0
54.37,382.0
54.38,348.0
54.39,371.0
54.4,352.0
54.41,364.0
54.42,391.0
54.43,375.0
54.44,367.0
54.45,363.0
54.46,317.0
54.47,323.0
54.48,388.0
54.49,371.0
54.5,365.0
54.51,359.0
54.52,393.0
54.53,375.0
54.54,362.0
54.55,357.0
54.56,369.0
54.57,358.0
54.58,346.0
54.59,378.0
54.6,357.0
54.61,333.0
54.62,360.0
54.63,357.0
54.64,368.0
54.65,355.0
54.66,341.0
54.67,350.0
54.68,382.0
54.69,352.0
54.7,350.0
54.71,379.0
54.72,383.0
54.73,365.0
54.74,366.0
54.75,386.0
54.76,361.0
54.77,354.0
54.78,373.0
54.79,378.0
54.8,366.0
54.81,359.0
54.82,348.0
54.83,341.0
54.84,356.0
54.85,372.0
54.86,363.0
54.87,389.0
54.88,376.0
54.89,378.0
54.9,385.0
54.91,355.0
54.92,369.0
54.93,344.0
54.94,358.0
54.95,362.0
54.96,363.0
54.97,330.0
54.98,358.0
54.99,332.0
55.0,382.0
55.01,352.0
55.02,352.0
55.03,365.0
55.04,380.0
55.05,346.0
55.06,368.0
55.07,357.0
55.08,359.0
55.09,384.0
55.1,397.0
55.11,370.0
55.12,375.0
55.13,371.0
55.14,358.0
55.15,372.0
55.16,376.0
55.17,373.0
55.18,363.0
55.19,381.0
55.2,357.0
55.21,382.0
55.22,346.0
55.23,399.0
55.24,402.0
55.25,337.0
55.26,356.0
55.27,395.0
55.28,331.0
55.29,361.0
55.3,332.0
55.31,343.0
55.32,397.0
55.33,349.0
55.34,346.0
55.35,355.0
55.36,394.0
55.37,381.0
55.38,383.0
55.39,352.0
55.4,344.0
55.41,373.0
55.42,357.0
55.43,344.0
55.44,330.0
55.45,375.0
55.46,368.0
55.47,330.0
55.48,368.0
55.49,340.0
55.5,357.0
55.51,362.0
55.52,376.0
55.53,339.0
55.54,368.0
55.55,362.0
55.56,331.0
55.57,358.0
55.58,318.0
55.59,320.0
55.6,352.0
55.61,387.0
55.62,382.0
55.63,363.0
55.64,348.0
55.65,360.0
55.66,352.0
55.67,354.0
55.68,354.0
55.69,329.0
55.7,363.0
55.71,329.0
55.72,377.0
55.73,380.0
55.74,344.0
55.75,354.0
55.76,370.0
55.77,341.0
55.78,363.0
55.79,355.0
55.8,347.0
55.81,360.0
55.82,342.0
55.83,393.0
55.84,373.0
55.85,364.0
55.86,392.0
55.87,358.0
55.88,363.0
55.89,366.0
55.9,352.0
55.91,357.0
55.92,352.0
55.93,369.0
55.94,392.0
55.95,352.0
55.96,340.0
55.97,366.0
55.98,331.0
55.99,377.0
56.0,339.0
56.01,356.0
56.02,359.0
56.03,370.0
56.04,347.0
56.05,338.0
56.06,371.0
56.07,359.0
56.08,374.0
56.09,369.0
56.1,360.0
56.11,337.0
56.12,365.0
56.13,372.0
56.14,381.0
56.15,396.0
56.16,355.0
56.17,363.0
56.18,337.0
56.19,384.0
56.2,360.0
56.21,342.0
56.22,359.0
56.23,361.0
56.24,369.0
56.25,372.0
56.26,349.0
56.27,369.0
56.28,320.0
56.29,351.0
56.3,354.0
56.31,365.0
56.32,366.0
56.33,342.0
56.34,325.0
56.35,347.0
56.36,342.0
56.37,323.0
56.38,373.0
56.39,334.0
56.4,328.0
56.41,363.0
56.42,383.0
56.43,359.0
56.44,351.0
56.45,334.0
56.46,321.0
56.47,385.0
56.48,399.0
56.49,366.0
56.5,332.0
56.51,379.0
56.52,331.0
56.53,356.0
56.54,357.0
56.55,391.0
56.56,360.0
56.57,325.0
56.58,346.0
56.59,336.0
56.6,325.0
56.61,368.0
56.62,359.0
56.63,393.0
56.64,355.0
56.65,330.0
56.66,350.0
56.67,342.0
56.68,327.0
56.69,344.0
56.7,377.0
56.71,348.0
56.72,371.0
56.73,368.0
56.74,406.0
56.75,335.0
56.76,369.0
56.77,337.0
56.78,324.0
56.79,380.0
56.8,361.0
56.81,356.0
56.82,324.0
56.83,368.0
56.84,370.0
56.85,348.0
56.86,320.0
56.87,356.0
56.88,315.0
56.89,395.0
56.9,340.0
56.91,358.0
56.92,372.0
56.93,370.0
56.94,352.0
56.95,341.0
56.96,374.0
56.97,346.0
56.98,341.0
56.99,360.0
57.0,380.0
57.01,346.0
57.02,362.0
57.03,374.0
57.04,357.0
57.05,389.0
57.06,362.0
57.07,354.0
57.08,350.0
57.09,350.0
57.1,364.0
57.11,367.0
57.12,322.0
57.13,371.0
57.14,371.0
57.15,378.0
57.16,339.0
57.17,348.0
57.18,360.0
57.19,353.0
57.2,328.0
57.21,349.0
57.22,349.0
57.23,372.0
57.24,347.0
57.25,371.0
57.26,323.0
57.27,371.0
57.28,380.0
57.29,371.0
57.3,369.0
57.31,320.0
57.32,425.0
57.33,363.0
57.34,371.0
57.35,384.0
57.36,363.0
57.37,362.0
57.38,373.0
57.39,386.0
57.4,354.0
57.41,371.0
57.42,386.0
57.43,391.0
57.44,378.0
57.45,361.0
57.46,368.0
57.47,373.0
57.48,327.0
57.49,363.0
57.5,403.0
57.51,350.0
57.52,365.0
57.53,379.0
57.54,332.0
57.55,371.0
57.56,363.0
57.57,381.0
57.58,362.0
57.59,344.0
57.6,358.0
57.61,351.0
57.62,366.0
57.63,316.0
57.64,360.0
57.65,359.0
57.66,351.0
57.67,347.0
57.68,369.0
57.69,375.0
57.7,367.0
57.71,366.0
57.72,370.0
57.73,331.0
57.74,362.0
57.75,369.0
57.76,345.0
57.77,384.0
57.78,364.0
57.79,353.0
57.8,381.0
57.81,320.0
57.82,340.0
57.83,337.0
57.84,345.0
57.85,371.0
57.86,338.0
57.87,341.0
57.88,346.0
57.89,327.0
57.9,353.0
57.91,345.0
57.92,361.0
57.93,368.0
57.94,384.0
57.95,313.0
57.96,339.0
57.97,329.0
57.98,367.0
57.99,380.0
58.0,388.0
58.01,360.0
58.02,360.0
58.03,355.0
58.04,399.0
58.05,375.0
58.06,352.0
58.07,337.0
58.08,354.0
58.09,363.0
58.1,344.0
58.11,362.0
58.12,348.0
58.13,378.0
58.14,390.0
58.15,329.0
58.16,394.0
58.17,359.0
58.18,365.0
58.19,356.0
58.2,356.0
58.21,337.0
58.22,376.0
58.23,338.0
58.24,352.0
58.25,333.0
58.26,358.0
58.27,350.0
58.28,364.0
58.29,351.0
58.3,330.0
58.31,342.0
58.32,379.0
58.33,331.0
58.34,375.0
58.35,315.0
58.36,335.0
58.37,357.0
58.38,352.0
58.39,354.0
58.4,341.0
58.41,355.0
58.42,346.0
58.43,368.0
58.44,364.0
58.45,327.0
58.46,374.0
58.47,371.0
58.48,382.0
58.49,326.0
58.5,359.0
58.51,382.0
58.52,344.0
58.53,354.0
58.54,347.0
58.55,377.0
58.56,344.0
58.57,359.0
58.58,383.0
58.59,370.0
58.6,342.0
58.61,349.0
58.62,367.0
58.63,328.0
58.64,385.0
58.65,346.0
58.66,369.0
58.67,374.0
58.68,334.0
58.69,360.0
58.7,354.0
58.71,376.0
58.72,395.0
58.73,372.0
58.74,349.0
58.75,384.0
58.76,352.0
58.77,329.0
58.78,376.0
58.79,364.0
58.8,324.0
58.81,361.0
58.82,377.0
58.83,377.0
58.84,383.0
58.85,362.0
58.86,360.0
58.87,314.0
58.88,334.0
58.89,367.0
58.9,326.0
58.91,313.0
58.92,373.0
58.93,373.0
58.94,375.0
58.95,342.0
58.96,352.0
58.97,393.0
58.98,332.0
58.99,368.0
59.0,385.0
59.01,375.0
59.02,368.0
59.03,369.0
59.04,380.0
59.05,341.0
59.06,345.0
59.07,371.0
59.08,374.0
59.09,399.0
59.1,341.0
59.11,345.0
59.12,396.0
59.13,368.0
59.14,358.0
59.15,351.0
59.16,354.0
59.17,385.0
59.18,372.0
59.19,339.0
59.2,336.0
59.21,356.0
59.22,394.0
59.23,353.0
59.24,401.0
59.25,364.0
59.26,361.0
59.27,356.0
59.28,353.0
59.29,376.0
59.3,361.0
59.31,375.0
59.32,331.0
59.33,339.0
59.34,394.0
59.35,367.0
59.36,384.0
59.37,332.0
59.38,362.0
59.39,375.0
59.4,368.0
59.41,346.0
59.42,340.0
59.43,334.0
59.44,373.0
59.45,353.0
59.46,352.0
59.47,358.0
59.48,358.0
59.49,388.0
59.5,371.0
59.51,399.0
59.52,392.0
59.53,382.0
59.54,371.0
59.55,342.0
59.56,342.0
59.57,372.0
59.58,359.0
59.59,388.0
59.6,364.0
59.61,372.0
59.62,327.0
59.63,365.0
59.64,393.0
59.65,354.0
59.66,388.0
59.67,368.0
59.68,372.0
59.69,359.0
59.7,399.0
59.71,402.0
59.72,346.0
59.73,378.0
59.74,329.0
59.75,349.0
59.76,370.0
59.77,337.0
59.78,351.0
59.79,370.0
59.8,381.0
59.81,359.0
59.82,368.0
59.83,385.0
59.84,378.0
59.85,384.0
59.86,385.0
59.87,344.0
59.88,395.0
59.89,356.0
59.9,362.0
59.91,395.0
59.92,341.0
59.93,364.0
59.94,422.0
59.95,407.0
59.96,393.0
59.97,392.0
59.98,358.0
59.99,370.0
60.0,380.0
60.01,365.0
60.02,368.0
60.03,370.0
60.04,341.0
60.05,379.0
60.06,375.0
60.07,413.0
60.08,347.0
60.09,350.0
60.1,373.0
60.11,369.0
60.12,385.0
60.13,366.0
60.14,389.0
60.15,384.0
60.16,387.0
60.17,355.0
60.18,365.0
60.19,375.0
60.2,354.0
60.21,365.0
60.22,377.0
60.23,356.0
60.24,377.0
60.25,360.0
60.26,360.0
60.27,385.0
60.28,373.0
60.29,424.0
60.3,405.0
60.31,399.0
60.32,344.0
60.33,387.0
60.34,395.0
60.35,391.0
60.36,386.0
60.37,399.0
60.38,379.0
60.39,355.0
60.4,404.0
60.41,381.0
60.42,392.0
60.43,397.0
60.44,393.0
60.45,396.0
60.46,398.0
60.47,407.0
60.48,374.0
60.49,363.0
60.5,394.0
60.51,393.0
60.52,409.0
60.53,408.0
60.54,418.0
60.55,410.0
60.56,398.0
60.57,400.0
60.58,399.0
60.59,360.0
60.6,421.0
60.61,415.0
60.62,405.0
60.63,437.0
60.64,437.0
60.65,401.0
60.66,423.0
60.67,400.0
60.68,396.0
60.69,394.0
60.7,434.0
60.71,414.0
60.72,394.0
60.73,415.0
60.74,398.0
60.75,429.0
60.76,397.0
60.77,431.0
60.78,446.0
60.79,437.0
60.8,438.0
60.81,441.0
60.82,448.0
60.83,451.0
60.84,468.0
60.85,475.0
60.86,448.0
60.87,438.0
60.88,481.0
60.89,437.0
60.9,503.0
60.91,509.0
60.92,515.0
60.93,527.0
60.94,464.0
60.95,517.0
60.96,486.0
60.97,505.0
60.98,543.0
60.99,555.0
61.0,568.0
61.01,592.0
61.02,524.0
61.03,586.0
61.04,583.0
61.05,605.0
61.06,585.0
61.07,628.0
61.08,600.0
61.09,645.0
61.1,624.0
61.11,673.0
61.12,682.0
61.13,702.0
61.14,689.0
61.15,728.0
61.16,752.0
61.17,826.0
61.18,836.0
61.19,861.0
61.2,909.0
61.21,937.0
61.22,965.0
61.23,1096.0
61.24,1085.0
61.25,1113.0
61.26,1134.0
61.27,1278.0
61.28,1222.0
61.29,1164.0
61.3,1203.0
61.31,1188.0
61.32,1130.0
61.33,1116.0
61.34,1064.0
61.35,1103.0
61.36,1081.0
61.37,1073.0
61.38,992.0
61.39,1041.0
61.4,1037.0
61.41,1047.0
61.42,981.0
61.43,1008.0
61.44,1027.0
61.45,1009.0
61.46,951.0
61.47,963.0
61.48,904.0
61.49,935.0
61.5,851.0
61.51,810.0
61.52,851.0
61.53,736.0
61.54,720.0
61.55,664.0
61.56,741.0
61.57,689.0
61.58,643.0
61.59,640.0
61.6,652.0
61.61,616.0
61.62,614.0
61.63,601.0
61.64,612.0
61.65,587.0
61.66,562.0
61.67,511.0
61.68,537.0
61.69,564.0
61.7,493.0
61.71,502.0
61.72,498.0
61.73,483.0
61.74,447.0
61.75,474.0
61.76,505.0
61.77,534.0
61.78,484.0
61.79,463.0
61.8,465.0
61.81,459.0
61.82,454.0
61.83,435.0
61.84,451.0
61.85,479.0
61.86,463.0
61.87,474.0
61.88,412.0
61.89,404.0
61.9,444.0
61.91,423.0
61.92,433.0
61.93,414.0
61.94,439.0
61.95,412.0
61.96,427.0
61.97,412.0
61.98,394.0
61.99,451.0
62.0,402.0
62.01,420.0
62.02,386.0
62.03,377.0
62.04,408.0
62.05,424.0
62.06,382.0
62.07,392.0
62.08,366.0
62.09,412.0
62.1,400.0
62.11,413.0
62.12,412.0
62.13,356.0
62.14,409.0
62.15,420.0
62.16,369.0
62.17,395.0
62.18,387.0
62.19,367.0
62.2,386.0
62.21,343.0
62.22,375.0
62.23,391.0
62.24,386.0
62.25,395.0
62.26,358.0
62.27,405.0
62.28,354.0
62.29,404.0
62.3,400.0
62.31,386.0
62.32,398.0
62.33,376.0
62.34,372.0
62.35,377.0
62.36,354.0
62.37,388.0
62.38,361.0
62.39,408.0
62.4,340.0
62.41,356.0
62.42,355.0
62.43,351.0
62.44,396.0
62.45,395.0
62.46,318.0
62.47,389.0
62.48,380.0
62.49,354.0
62.5,359.0
62.51,365.0
62.52,361.0
62.53,350.0
62.54,400.0
62.55,384.0
62.56,346.0
62.57,396.0
62.58,343.0
62.59,353.0
62.6,387.0
62.61,373.0
62.62,388.0
62.63,342.0
62.64,377.0
62.65,342.0
62.66,381.0
62.67,391.0
62.68,362.0
62.69,371.0
62.7,369.0
62.71,370.0
62.72,360.0
62.73,369.0
62.74,364.0
62.75,405.0
62.76,370.0
62.77,346.0
62.78,362.0
62.79,357.0
62.8,346.0
62.81,386.0
62.82,381.0
62.83,389.0
62.84,362.0
62.85,375.0
62.86,347.0
62.87,353.0
62.88,352.0
62.89,366.0
62.9,341.0
62.91,368.0
62.92,345.0
62.93,370.0
62.94,341.0
62.95,388.0
62.96,377.0
62.97,387.0
62.98,343.0
62.99,321.0
63.0,350.0
63.01,356.0
63.02,395.0
63.03,378.0
63.04,367.0
63.05,362.0
63.06,366.0
63.07,379.0
63.08,372.0
63.09,380.0
63.1,370.0
63.11,355.0
63.12,350.0
63.13,317.0
63.14,370.0
63.15,388.0
63.16,346.0
63.17,378.0
63.18,361.0
63.19,327.0
63.2,347.0
63.21,304.0
63.22,380.0
63.23,354.0
63.24,376.0
63.25,325.0
63.26,344.0
63.27,370.0
63.28,347.0
63.29,378.0
63.3,362.0
63.31,368.0
63.32,357.0
63.33,383.0
63.34,392.0
63.35,360.0
63.36,349.0
63.37,349.0
63.38,366.0
63.39,355.0
63.4,363.0
63.41,328.0
63.42,359.0
63.43,384.0
63.44,330.0
63.45,324.0
63.46,347.0
63.47,342.0
63.48,372.0
63.49,358.0
63.5,351.0
63.51,353.0
63.52,363.0
63.53,337.0
63.54,340.0
63.55,315.0
63.56,347.0
63.57,352.0
63.58,352.0
63.59,349.0
63.6,356.0
63.61,363.0
63.62,334.0
63.63,356.0
63.64,397.0
63.65,358.0
63.66,351.0
63.67,314.0
63.68,367.0
63.69,343.0
63.7,352.0
63.71,335.0
63.72,365.0
63.73,370.0
63.74,308.0
63.75,334.0
63.76,366.0
63.77,341.0
63.78,314.0
63.79,356.0
63.8,358.0
63.81,346.0
63.82,346.0
63.83,322.0
63.84,360.0
63.85,355.0
63.86,369.0
63.87,370.0
63.88,367.0
63.89,344.0
63.9,369.0
63.91,343.0
63.92,304.0
63.93,360.0
63.94,372.0
63.95,346.0
63.96,352.0
63.97,305.0
63.98,341.0
63.99,335.0
64.0,401.0
64.01,325.0
64.02,363.0
64.03,345.0
64.04,357.0
64.05,364.0
64.06,344.0
64.07,342.0
64.08,351.0
64.09,355.0
64.1,343.0
64.11,339.0
64.12,345.0
64.13,368.0
64.14,370.0
64.15,350.0
64.16,340.0
64.17,373.0
64.18,369.0
64.19,334.0
64.2,360.0
64.21,364.0
64.22,403.0
64.23,341.0
64.24,370.0
64.25,349.0
64.26,351.0
64.27,339.0
64.28,333.0
64.29,342.0
64.3,332.0
64.31,351.0
64.32,340.0
64.33,356.0
64.34,329.0
64.35,319.0
64.36,347.0
64.37,348.0
64.38,368.0
64.39,374.0
64.4,374.0
64.41,377.0
64.42,369.0
64.43,346.0
64.44,352.0
64.45,350.0
64.46,343.0
64.47,343.0
64.48,303.0
64.49,349.0
64.5,315.0
64.51,348.0
64.52,354.0
64.53,358.0
64.54,348.0
64.55,358.0
64.56,358.0
64.57,369.0
64.58,362.0
64.59,335.0
64.6,325.0
64.61,341.0
64.62,351.0
64.63,389.0
64.64,348.0
64.65,347.0
64.66,322.0
64.67,354.0
64.68,339.0
64.69,386.0
64.7,360.0
64.71,327.0
64.72,334.0
64.73,350.0
64.74,333.0
64.75,359.0
64.76,393.0
64.77,361.0
64.78,348.0
64.79,351.0
64.8,344.0
64.81,321.0
64.82,327.0
64.83,351.0
64.84,346.0
64.85,379.0
64.86,379.0
64.87,320.0
64.88,344.0
64.89,346.0
64.9,360.0
64.91,338.0
64.92,377.0
64.93,350.0
64.94,331.0
64.95,335.0
64.96,326.0
64.97,322.0
64.98,314.0
64.99,342.0
65.0,347.0
65.01,364.0
65.02,327.0
65.03,339.0
65.04,330.0
65.05,327.0
65.06,372.0
65.07,325.0
65.08,368.0
65.09,347.0
65.1,371.0
65.11,354.0
65.12,336.0
65.13,328.0
65.14,334.0
65.15,348.0
65.16,358.0
65.17,328.0
65.18,326.0
65.19,335.0
65.2,367.0
65.21,335.0
65.22,352.0
65.23,348.0
65.24,332.0
65.25,369.0
65.26,346.0
65.27,333.0
65.28,325.0
65.29,351.0
65.3,381.0
65.31,330.0
65.32,355.0
65.33,328.0
65.34,347.0
65.35,372.0
65.36,334.0
65.37,332.0
65.38,393.0
65.39,351.0
65.4,368.0
65.41,355.0
65.42,330.0
65.43,324.0
65.44,331.0
65.45,371.0
65.46,334.0
65.47,357.0
65.48,318.0
65.49,353.0
65.5,353.0
65.51,360.0
65.52,375.0
65.53,382.0
65.54,353.0
65.55,335.0
65.56,359.0
65.57,350.0
65.58,324.0
65.59,342.0
65.6,357.0
65.61,315.0
65.62,347.0
65.63,345.0
65.64,368.0
65.65,309.0
65.66,346.0
65.67,320.0
65.68,344.0
65.69,330.0
65.7,331.0
65.71,341.0
65.72,323.0
65.73,345.0
65.74,375.0
65.75,351.0
65.76,323.0
65.77,368.0
65.78,337.0
65.79,373.0
65.8,363.0
65.81,352.0
65.82,383.0
65.83,316.0
65.84,360.0
65.85,347.0
65.86,361.0
65.87,382.0
65.88,379.0
65.89,333.0
65.9,324.0
65.91,332.0
65.92,346.0
65.93,331.0
65.94,375.0
65.95,328.0
65.96,359.0
65.97,329.0
65.98,332.0
65.99,362.0
66.0,338.0
66.01,359.0
66.02,315.0
66.03,367.0
66.04,315.0
66.05,338.0
66.06,334.0
66.07,334.0
66.08,346.0
66.09,328.0
66.1,334.0
66.11,338.0
66.12,351.0
66.13,343.0
66.14,350.0
66.15,339.0
66.16,364.0
66.17,311.0
66.18,319.0
66.19,352.0
66.2,348.0
66.21,344.0
66.22,351.0
66.23,344.0
66.24,361.0
66.25,347.0
66.26,322.0
66.27,343.0
66.28,368.0
66.29,345.0
66.3,375.0
66.31,321.0
66.32,344.0
66.33,361.0
66.34,360.0
66.35,329.0
66.36,353.0
66.37,339.0
66.38,350.0
66.39,331.0
66.4,345.0
66.41,343.0
66.42,362.0
66.43,356.0
66.44,363.0
66.45,355.0
66.46,318.0
66.47,322.0
66.48,383.0
66.49,319.0
66.5,349.0
66.51,335.0
66.52,351.0
66.53,328.0
66.54,322.0
66.55,358.0
66.56,343.0
66.57,347.0
66.58,321.0
66.59,368.0
66.6,350.0
66.61,323.0
66.62,364.0
66.63,361.0
66.64,335.0
66.65,351.0
66.66,384.0
66.67,328.0
66.68,327.0
66.69,353.0
66.7,362.0
66.71,331.0
66.72,339.0
66.73,338.0
66.74,342.0
66.75,338.0
66.76,349.0
66.77,340.0
66.78,343.0
66.79,335.0
66.8,326.0
66.81,363.0
66.82,378.0
66.83,352.0
66.84,342.0
66.85,334.0
66.86,319.0
66.87,399.0
66.88,375.0
66.89,362.0
66.9,355.0
66.91,313.0
66.92,339.0
66.93,323.0
66.94,351.0
66.95,354.0
66.96,334.0
66.97,332.0
66.98,357.0
66.99,366.0
67.0,363.0
67.01,334.0
67.02,335.0
67.03,337.0
67.04,340.0
67.05,329.0
67.06,370.0
67.07,334.0
67.08,355.0
67.09,344.0
67.1,349.0
67.11,358.0
67.12,352.0
67.13,360.0
67.14,308.0
67.15,343.0
67.16,385.0
67.17,348.0
67.18,321.0
67.19,347.0
67.2,363.0
67.21,341.0
67.22,353.0
67.23,352.0
67.24,344.0
67.25,336.0
67.26,343.0
67.27,331.0
67.28,332.0
67.29,353.0
67.3,317.0
67.31,348.0
67.32,345.0
67.33,365.0
67.34,344.0
67.35,344.0
67.36,382.0
67.37,359.0
67.38,344.0
67.39,341.0
67.4,319.0
67.41,346.0
67.42,330.0
67.43,354.0
67.44,307.0
67.45,351.0
67.46,399.0
67.47,337.0
67.48,309.0
67.49,314.0
67.5,298.0
67.51,333.0
67.52,369.0
67.53,352.0
67.54,344.0
67.55,334.0
67.56,343.0
67.57,369.0
67.58,374.0
67.59,333.0
67.6,333.0
67.61,337.0
67.62,344.0
67.63,348.0
67.64,374.0
67.65,378.0
67.66,330.0
67.67,359.0
67.68,347.0
67.69,331.0
67.7,349.0
67.71,348.0
67.72,311.0
67.73,334.0
67.74,369.0
67.75,345.0
67.76,334.0
67.77,342.0
67.78,326.0
67.79,312.0
67.8,363.0
67.81,336.0
67.82,348.0
67.83,337.0
67.84,332.0
67.85,344.0
67.86,363.0
67.87,355.0
67.88,308.0
67.89,364.0
67.9,322.0
67.91,339.0
67.92,331.0
67.93,336.0
67.94,302.0
67.95,357.0
67.96,303.0
67.97,371.0
67.98,354.0
67.99,364.0
68.0,338.0
68.01,343.0
68.02,358.0
68.03,346.0
68.04,348.0
68.05,351.0
68.06,338.0
68.07,376.0
68.08,341.0
68.09,322.0
68.1,349.0
68.11,342.0
68.12,343.0
68.13,329.0
68.14,329.0
68.15,345.0
68.16,348.0
68.17,341.0
68.18,343.0
68.19,326.0
68.2,342.0
68.21,355.0
68.22,330.0
68.23,353.0
68.24,380.0
68.25,359.0
68.26,337.0
68.27,337.0
68.28,369.0
68.29,341.0
68.3,378.0
68.31,370.0
68.32,369.0
68.33,314.0
68.34,323.0
68.35,312.0
68.36,323.0
68.37,307.0
68.38,350.0
68.39,334.0
68.4,348.0
68.41,340.0
68.42,327.0
68.43,340.0
68.44,314.0
68.45,335.0
68.46,351.0
68.47,314.0
68.48,346.0
68.49,319.0
68.5,312.0
68.51,315.0
68.52,323.0
68.53,338.0
68.54,369.0
68.55,359.0
68.56,296.0
68.57,343.0
68.58,312.0
68.59,364.0
68.6,363.0
68.61,340.0
68.62,344.0
68.63,309.0
68.64,345.0
68.65,363.0
68.66,336.0
68.67,361.0
68.68,327.0
68.69,372.0
68.7,373.0
68.71,327.0
68.72,327.0
68.73,341.0
68.74,358.0
68.75,355.0
68.76,333.0
68.77,339.0
68.78,341.0
68.79,342.0
68.8,337.0
68.81,321.0
68.82,367.0
68.83,349.0
68.84,335.0
68.85,359.0
68.86,310.0
68.87,334.0
68.88,338.0
68.89,330.0
68.9,346.0
68.91,332.0
68.92,320.0
68.93,360.0
68.94,366.0
68.95,354.0
68.96,315.0
68.97,362.0
68.98,339.0
68.99,322.0
69.0,316.0
69.01,383.0
69.02,347.0
69.03,376.0
69.04,342.0
69.05,314.0
69.06,333.0
69.07,330.0
69.08,321.0
69.09,338.0
69.1,354.0
69.11,327.0
69.12,347.0
69.13,339.0
69.14,378.0
69.15,337.0
69.16,338.0
69.17,361.0
69.18,348.0
69.19,345.0
69.2,377.0
69.21,338.0
69.22,335.0
69.23,341.0
69.24,368.0
69.25,356.0
69.26,354.0
69.27,345.0
69.28,383.0
69.29,327.0
69.3,344.0
69.31,330.0
69.32,357.0
69.33,356.0
69.34,372.0
69.35,339.0
69.36,350.0
69.37,324.0
69.38,370.0
69.39,345.0
69.4,346.0
69.41,341.0
69.42,348.0
69.43,352.0
69.44,350.0
69.45,323.0
69.46,353.0
69.47,325.0
69.48,357.0
69.49,353.0
69.5,338.0
69.51,331.0
69.52,354.0
69.53,358.0
69.54,372.0
69.55,368.0
69.56,336.0
69.57,379.0
69.58,390.0
69.59,342.0
69.6,352.0
69.61,317.0
69.62,338.0
69.63,361.0
69.64,356.0
69.65,360.0
69.66,375.0
69.67,357.0
69.68,305.0
69.69,334.0
69.7,347.0
69.71,321.0
69.72,314.0
69.73,329.0
69.74,318.0
69.75,295.0
69.76,385.0
69.77,348.0
69.78,365.0
69.79,338.0
69.8,369.0
69.81,355.0
69.82,336.0
69.83,356.0
69.84,365.0
69.85,354.0
69.86,393.0
69.87,356.0
69.88,328.0
69.89,359.0
69.9,354.0
69.91,355.0
69.92,358.0
69.93,366.0
69.94,365.0
69.95,348.0
69.96,332.0
69.97,367.0
69.98,313.0
69.99,300.0
70.0,371.0
70.01,352.0
70.02,369.0
70.03,376.0
70.04,328.0
70.05,346.0
70.06,341.0
70.07,341.0
70.08,378.0
70.09,359.0
70.1,349.0
70.11,331.0
70.12,302.0
70.13,359.0
70.14,381.0
70.15,360.0
70.16,370.0
70.17,358.0
70.18,355.0
70.19,378.0
70.2,328.0
70.21,334.0
70.22,341.0
70.23,351.0
70.24,334.0
70.25,330.0
70.26,375.0
70.27,327.0
70.28,305.0
70.29,326.0
70.3,349.0
70.31,292.0
70.32,378.0
70.33,363.0
70.34,349.0
70.35,376.0
70.36,314.0
70.37,330.0
70.38,351.0
70.39,328.0
70.4,353.0
70.41,354.0
70.42,343.0
70.43,350.0
70.44,348.0
70.45,378.0
70.46,348.0
70.47,339.0
70.48,347.0
70.49,338.0
70.5,335.0
70.51,327.0
70.52,356.0
70.53,376.0
70.54,358.0
70.55,341.0
70.56,352.0
70.57,352.0
70.58,325.0
70.59,363.0
70.6,329.0
70.61,325.0
70.62,337.0
70.63,335.0
70.64,365.0
70.65,350.0
70.66,358.0
70.67,341.0
70.68,367.0
70.69,346.0
70.7,340.0
70.71,332.0
70.72,317.0
70.73,327.0
70.74,352.0
70.75,338.0
70.76,324.0
70.77,334.0
70.78,362.0
70.79,311.0
70.8,329.0
70.81,348.0
70.82,371.0
70.83,388.0
70.84,321.0
70.85,393.0
70.86,358.0
70.87,343.0
70.88,341.0
70.89,352.0
70.9,304.0
70.91,371.0
70.92,360.0
70.93,322.0
70.94,344.0
70.95,368.0
70.96,315.0
70.97,364.0
70.98,315.0
70.99,353.0
71.0,313.0
71.01,340.0
71.02,350.0
71.03,380.0
71.04,362.0
71.05,382.0
71.06,344.0
71.07,313.0
71.08,315.0
71.09,331.0
71.1,335.0
71.11,296.0
71.12,341.0
71.13,341.0
71.14,326.0
71.15,339.0
71.16,388.0
71.17,326.0
71.18,339.0
71.19,365.0
71.2,348.0
71.21,325.0
71.22,332.0
71.23,342.0
71.24,351.0
71.25,348.0
71.26,337.0
71.27,358.0
71.28,352.0
71.29,345.0
71.3,347.0
71.31,377.0
71.32,333.0
71.33,301.0
71.34,348.0
71.35,349.0
71.36,338.0
71.37,346.0
71.38,330.0
71.39,316.0
71.4,352.0
71.41,321.0
71.42,340.0
71.43,361.0
71.44,354.0
71.45,308.0
71.46,368.0
71.47,343.0
71.48,327.0
71.49,349.0
71.5,354.0
71.51,341.0
71.52,348.0
71.53,351.0
71.54,325.0
71.55,342.0
71.56,365.0
71.57,379.0
71.58,304.0
71.59,375.0
71.6,351.0
71.61,333.0
71.62,364.0
71.63,360.0
71.64,344.0
71.65,330.0
71.66,352.0
71.67,341.0
71.68,365.0
71.69,334.0
71.7,323.0
71.71,337.0
71.72,328.0
71.73,369.0
71.74,349.0
71.75,332.0
71.76,342.0
71.77,347.0
71.78,335.0
71.79,359.0
71.8,335.0
71.81,375.0
71.82,376.0
71.83,362.0
71.84,352.0
71.85,349.0
71.86,356.0
71.87,334.0
71.88,343.0
71.89,326.0
71.9,354.0
71.91,344.0
71.92,343.0
71.93,325.0
71.94,356.0
71.95,348.0
71.96,372.0
71.97,322.0
71.98,356.0
71.99,364.0
72.0,348.0
72.01,304.0
72.02,389.0
72.03,379.0
72.04,364.0
72.05,364.0
72.06,345.0
72.07,355.0
72.08,338.0
72.09,358.0
72.1,348.0
72.11,334.0
72.12,349.0
72.13,323.0
72.14,340.0
72.15,317.0
72.16,346.0
72.17,365.0
72.18,345.0
72.19,353.0
72.2,333.0
72.21,328.0
72.22,408.0
72.23,364.0
72.24,350.0
72.25,386.0
72.26,335.0
72.27,333.0
72.28,351.0
72.29,332.0
72.3,385.0
72.31,347.0
72.32,395.0
72.33,383.0
72.34,333.0
72.35,363.0
72.36,346.0
72.37,360.0
72.38,361.0
72.39,331.0
72.4,345.0
72.41,354.0
72.42,356.0
72.43,346.0
72.44,380.0
72.45,365.0
72.46,340.0
72.47,359.0
72.48,403.0
72.49,357.0
72.5,345.0
72.51,385.0
72.52,339.0
72.53,376.0
72.54,374.0
72.55,385.0
72.56,389.0
72.57,356.0
72.58,347.0
72.59,400.0
72.6,343.0
72.61,365.0
72.62,390.0
72.63,364.0
72.64,356.0
72.65,383.0
72.66,400.0
72.67,346.0
72.68,398.0
72.69,416.0
72.7,371.0
72.71,381.0
72.72,374.0
72.73,393.0
72.74,388.0
72.75,385.0
72.76,371.0
72.77,371.0
72.78,395.0
72.79,359.0
72.8,384.0
72.81,393.0
72.82,408.0
72.83,406.0
72.84,400.0
72.85,370.0
72.86,377.0
72.87,390.0
72.88,436.0
72.89,371.0
72.9,407.0
72.91,441.0
72.92,403.0
72.93,418.0
72.94,412.0
72.95,430.0
72.96,426.0
72.97,411.0
72.98,417.0
72.99,434.0
73.0,420.0
73.01,412.0
73.02,446.0
73.03,429.0
73.04,459.0
73.05,446.0
73.06,459.0
73.07,479.0
73.08,476.0
73.09,430.0
73.1,443.0
73.11,433.0
73.12,494.0
73.13,469.0
73.14,454.0
73.15,484.0
73.16,495.0
73.17,489.0
73.18,510.0
73.19,519.0
73.2,525.0
73.21,509.0
73.22,489.0
73.23,561.0
73.24,527.0
73.25,508.0
73.26,553.0
73.27,598.0
73.28,603.0
73.29,586.0
73.3,606.0
73.31,646.0
73.32,641.0
73.33,643.0
73.34,645.0
73.35,674.0
73.36,719.0
73.37,678.0
73.38,744.0
73.39,755.0
73.4,842.0
73.41,787.0
73.42,727.0
73.43,819.0
73.44,812.0
73.45,774.0
73.46,780.0
73.47,831.0
73.48,735.0
73.49,780.0
73.5,765.0
73.51,750.0
73.52,721.0
73.53,802.0
73.54,694.0
73.55,742.0
73.56,662.0
73.57,647.0
73.58,699.0
73.59,671.0
73.6,706.0
73.61,662.0
73.62,717.0
73.63,685.0
73.64,684.0
73.65,667.0
73.66,619.0
73.67,636.0
73.68,651.0
73.69,599.0
73.7,589.0
73.71,577.0
73.72,626.0
73.73,582.0
73.74,586.0
73.75,561.0
73.76,540.0
73.77,569.0
73.78,524.0
73.79,516.0
73.8,519.0
73.81,503.0
73.82,534.0
73.83,504.0
73.84,484.0
73.85,480.0
73.86,532.0
73.87,494.0
73.88,489.0
73.89,458.0
73.9,489.0
73.91,428.0
73.92,459.0
73.93,477.0
73.94,465.0
73.95,413.0
73.96,430.0
73.97,407.0
73.98,403.0
73.99,430.0
74.0,421.0
74.01,399.0
74.02,401.0
74.03,385.0
74.04,436.0
74.05,377.0
74.06,411.0
74.07,410.0
74.08,390.0
74.09,383.0
74.1,407.0
74.11,398.0
74.12,371.0
74.13,374.0
74.14,378.0
74.15,396.0
74.16,405.0
74.17,422.0
74.18,381.0
74.19,415.0
74.2,369.0
74.21,384.0
74.22,389.0
74.23,382.0
74.24,379.0
74.25,366.0
74.26,388.0
74.27,370.0
74.28,391.0
74.29,403.0
74.3,355.0
74.31,328.0
74.32,350.0
74.33,400.0
74.34,366.0
74.35,401.0
74.36,383.0
74.37,361.0
74.38,395.0
74.39,362.0
74.4,376.0
74.41,358.0
74.42,382.0
74.43,348.0
74.44,363.0
74.45,360.0
74.46,318.0
74.47,340.0
74.48,355.0
74.49,379.0
74.5,388.0
74.51,396.0
74.52,348.0
74.53,385.0
74.54,363.0
74.55,397.0
74.56,359.0
74.57,381.0
74.58,352.0
74.59,353.0
74.6,349.0
74.61,400.0
74.62,375.0
74.63,372.0
74.64,347.0
74.65,364.0
74.66,360.0
74.67,357.0
74.68,350.0
74.69,370.0
74.7,329.0
74.71,325.0
74.72,378.0
74.73,342.0
74.74,354.0
74.75,376.0
74.76,320.0
74.77,362.0
74.78,349.0
74.79,377.0
74.8,296.0
74.81,375.0
74.82,351.0
74.83,341.0
74.84,364.0
74.85,355.0
74.86,345.0
74.87,352.0
74.88,380.0
74.89,362.0
74.9,345.0
74.91,355.0
74.92,396.0
74.93,333.0
74.94,386.0
74.95,349.0
74.96,348.0
74.97,348.0
74.98,352.0
74.99,355.0
75.0,341.0
75.01,361.0
75.02,349.0
75.03,395.0
75.04,361.0
75.05,365.0
75.06,336.0
75.07,355.0
75.08,333.0
75.09,354.0
75.1,331.0
75.11,319.0
75.12,315.0
75.13,364.0
75.14,334.0
75.15,352.0
75.16,345.0
75.17,365.0
75.18,342.0
75.19,318.0
75.2,338.0
75.21,332.0
75.22,330.0
75.23,301.0
75.24,326.0
75.25,339.0
75.26,300.0
75.27,350.0
75.28,319.0
75.29,343.0
75.3,344.0
75.31,368.0
75.32,324.0
75.33,378.0
75.34,352.0
75.35,334.0
75.36,323.0
75.37,384.0
75.38,346.0
75.39,341.0
75.4,322.0
75.41,317.0
75.42,348.0
75.43,327.0
75.44,340.0
75.45,335.0
75.46,337.0
75.47,342.0
75.48,350.0
75.49,350.0
75.5,330.0
75.51,347.0
75.52,365.0
75.53,367.0
75.54,325.0
75.55,329.0
75.56,329.0
75.57,323.0
75.58,341.0
75.59,344.0
75.6,337.0
75.61,358.0
75.62,312.0
75.63,306.0
75.64,332.0
75.65,309.0
75.66,327.0
75.67,342.0
75.68,349.0
75.69,348.0
75.7,353.0
75.71,331.0
75.72,352.0
75.73,379.0
75.74,363.0
75.75,356.0
75.76,366.0
75.77,341.0
75.78,319.0
75.79,348.0
75.8,334.0
75.81,319.0
75.82,337.0
75.83,329.0
75.84,344.0
75.85,291.0
75.86,339.0
75.87,325.0
75.88,328.0
75.89,335.0
75.9,356.0
75.91,298.0
75.92,342.0
75.93,311.0
75.94,337.0
75.95,326.0
75.96,340.0
75.97,334.0
75.98,360.0
75.99,302.0
76.0,340.0
76.01,333.0
76.02,362.0
76.03,368.0
76.04,304.0
76.05,332.0
76.06,326.0
76.07,331.0
76.08,376.0
76.09,331.0
76.1,324.0
76.11,342.0
76.12,318.0
76.13,328.0
76.14,366.0
76.15,320.0
76.16,356.0
76.17,341.0
76.18,323.0
76.19,348.0
76.2,353.0
76.21,359.0
76.22,333.0
76.23,320.0
76.24,333.0
76.25,298.0
76.26,302.0
76.27,354.0
76.28,359.0
76.29,331.0
76.3,317.0
76.31,347.0
76.32,334.0
76.33,338.0
76.34,335.0
76.35,319.0
76.36,334.0
76.37,357.0
76.38,299.0
76.39,339.0
76.4,336.0
76.41,319.0
76.42,317.0
76.43,344.0
76.44,347.0
76.45,330.0
76.46,386.0
76.47,325.0
76.48,341.0
76.49,318.0
76.5,348.0
76.51,322.0
76.52,324.0
76.53,333.0
76.54,326.0
76.55,365.0
76.56,320.0
76.57,359.0
76.58,385.0
76.59,344.0
76.6,375.0
76.61,324.0
76.62,354.0
76.63,361.0
76.64,356.0
76.65,369.0
76.66,330.0
76.67,333.0
76.68,316.0
76.69,319.0
76.7,383.0
76.71,356.0
76.72,348.0
76.73,341.0
76.74,338.0
76.75,353.0
76.76,310.0
76.77,387.0
76.78,356.0
76.79,325.0
76.8,328.0
76.81,362.0
76.82,344.0
76.83,392.0
76.84,344.0
76.85,376.0
76.86,374.0
76.87,337.0
76.88,386.0
76.89,415.0
76.9,334.0
76.91,362.0
76.92,344.0
76.93,345.0
76.94,387.0
76.95,357.0
76.96,362.0
76.97,333.0
76.98,380.0
76.99,357.0
77.0,356.0
77.01,374.0
77.02,346.0
77.03,344.0
77.04,361.0
77.05,363.0
77.06,360.0
77.07,378.0
77.08,379.0
77.09,336.0
77.1,393.0
77.11,386.0
77.12,411.0
77.13,426.0
77.14,396.0
77.15,378.0
77.16,375.0
77.17,390.0
77.18,420.0
77.19,377.0
77.2,407.0
77.21,424.0
77.22,433.0
77.23,430.0
77.24,389.0
77.25,460.0
77.26,473.0
77.27,465.0
77.28,475.0
77.29,445.0
77.3,448.0
77.31,441.0
77.32,472.0
77.33,422.0
77.34,410.0
77.35,427.0
77.36,439.0
77.37,419.0
77.38,442.0
77.39,420.0
77.4,430.0
77.41,396.0
77.42,387.0
77.43,398.0
77.44,438.0
77.45,407.0
77.46,399.0
77.47,366.0
77.48,420.0
77.49,410.0
77.5,440.0
77.51,403.0
77.52,431.0
77.53,426.0
77.54,417.0
77.55,404.0
77.56,425.0
77.57,423.0
77.58,417.0
77.59,383.0
77.6,358.0
77.61,378.0
77.62,380.0
77.63,404.0
77.64,376.0
77.65,384.0
77.66,377.0
77.67,366.0
77.68,383.0
77.69,402.0
77.7,351.0
77.71,379.0
77.72,341.0
77.73,355.0
77.74,365.0
77.75,363.0
77.76,357.0
77.77,359.0
77.78,320.0
77.79,359.0
77.8,322.0
77.81,332.0
77.82,358.0
77.83,362.0
77.84,338.0
77.85,313.0
77.86,350.0
77.87,329.0
77.88,352.0
77.89,317.0
77.9,323.0
77.91,342.0
77.92,343.0
77.93,348.0
77.94,357.0
77.95,349.0
77.96,381.0
77.97,367.0
77.98,337.0
77.99,376.0
78.0,352.0
78.01,321.0
78.02,324.0
78.03,336.0
78.04,345.0
78.05,339.0
78.06,362.0
78.07,332.0
78.08,328.0
78.09,326.0
78.1,349.0
78.11,319.0
78.12,356.0
78.13,351.0
78.14,321.0
78.15,335.0
78.16,295.0
78.17,364.0
78.18,346.0
78.19,355.0
78.2,332.0
78.21,366.0
78.22,318.0
78.23,329.0
78.24,357.0
78.25,304.0
78.26,361.0
78.27,328.0
78.28,340.0
78.29,295.0
78.3,326.0
78.31,327.0
78.32,313.0
78.33,340.0
78.34,354.0
78.35,322.0
78.36,295.0
78.37,341.0
78.38,359.0
78.39,333.0
78.4,327.0
78.41,349.0
78.42,293.0
78.43,319.0
78.44,335.0
78.45,330.0
78.46,314.0
78.47,288.0
78.48,344.0
78.49,334.0
78.5,338.0
78.51,321.0
78.52,353.0
78.53,324.0
78.54,362.0
78.55,332.0
78.56,309.0
78.57,323.0
78.58,330.0
78.59,347.0
78.6,342.0
78.61,325.0
78.62,353.0
78.63,341.0
78.64,357.0
78.65,346.0
78.66,320.0
78.67,330.0
78.68,323.0
78.69,321.0
78.7,326.0
78.71,335.0
78.72,325.0
78.73,320.0
78.74,324.0
78.75,323.0
78.76,318.0
78.77,329.0
78.78,333.0
78.79,341.0
78.8,293.0
78.81,339.0
78.82,342.0
78.83,322.0
78.84,294.0
78.85,342.0
78.86,332.0
78.87,323.0
78.88,360.0
78.89,357.0
78.9,341.0
78.91,303.0
78.92,295.0
78.93,308.0
78.94,343.0
78.95,307.0
78.96,336.0
78.97,337.0
78.98,342.0
78.99,327.0
79.0,304.0
79.01,310.0
79.02,367.0
79.03,366.0
79.04,305.0
79.05,286.0
79.06,350.0
79.07,315.0
79.08,330.0
79.09,303.0
79.1,356.0
79.11,345.0
79.12,330.0
79.13,314.0
79.14,344.0
79.15,330.0
79.16,326.0
79.17,317.0
79.18,341.0
79.19,353.0
79.2,335.0
79.21,336.0
79.22,345.0
79.23,331.0
79.24,324.0
79.25,347.0
79.26,343.0
79.27,308.0
79.28,320.0
79.29,319.0
79.3,314.0
79.31,327.0
79.32,314.0
79.33,296.0
79.34,348.0
79.35,343.0
79.36,339.0
79.37,333.0
79.38,302.0
79.39,323.0
79.4,316.0
79.41,289.0
79.42,358.0
79.43,349.0
79.44,314.0
79.45,313.0
79.46,378.0
79.47,346.0
79.48,381.0
79.49,320.0
79.5,306.0
79.51,314.0
79.52,339.0
79.53,303.0
79.54,352.0
79.55,285.0
79.56,321.0
79.57,280.0
79.58,340.0
79.59,311.0
79.6,312.0
79.61,294.0
79.62,326.0
79.63,344.0
79.64,334.0
79.65,317.0
79.66,329.0
79.67,346.0
79.68,311.0
79.69,317.0
79.7,317.0
79.71,346.0
79.72,310.0
79.73,331.0
79.74,323.0
79.75,314.0
79.76,328.0
79.77,298.0
79.78,342.0
79.79,315.0
79.8,336.0
79.81,350.0
79.82,340.0
79.83,342.0
79.84,329.0
79.85,362.0
79.86,321.0
79.87,328.0
79.88,334.0
79.89,330.0
79.9,335.0
79.91,346.0
79.92,350.0
79.93,317.0
79.94,310.0
79.95,313.0
79.96,327.0
79.97,333.0
79.98,320.0
79.99,312.0
80.0,331.0
80.01,327.0
80.02,337.0
80.03,335.0
80.04,343.0
80.05,298.0
80.06,344.0
80.07,306.0
80.08,312.0
80.09,322.0
80.1,333.0
80.11,334.0
80.12,314.0
80.13,324.0
80.14,342.0
80.15,307.0
80.16,338.0
80.17,316.0
80.18,324.0
80.19,336.0
80.2,331.0
80.21,331.0
80.22,346.0
80.23,311.0
80.24,318.0
80.25,306.0
80.26,302.0
80.27,321.0
80.28,338.0
80.29,314.0
80.3,332.0
80.31,301.0
80.32,313.0
80.33,342.0
80.34,303.0
80.35,314.0
80.36,296.0
80.37,276.0
80.38,329.0
80.39,293.0
80.4,309.0
80.41,312.0
80.42,337.0
80.43,327.0
80.44,317.0
80.45,293.0
80.46,374.0
80.47,328.0
80.48,313.0
80.49,312.0
80.5,340.0
80.51,317.0
80.52,351.0
80.53,348.0
80.54,330.0
80.55,316.0
80.56,318.0
80.57,334.0
80.58,332.0
80.59,330.0
80.6,332.0
80.61,330.0
80.62,345.0
80.63,331.0
80.64,325.0
80.65,342.0
80.66,360.0
80.67,313.0
80.68,328.0
80.69,335.0
80.7,315.0
80.71,323.0
80.72,294.0
80.73,321.0
80.74,345.0
80.75,323.0
80.76,312.0
80.77,306.0
80.78,315.0
80.79,356.0
80.8,311.0
80.81,344.0
80.82,308.0
80.83,343.0
80.84,293.0
80.85,312.0
80.86,318.0
80.87,337.0
80.88,340.0
80.89,333.0
80.9,324.0
80.91,326.0
80.92,314.0
80.93,351.0
80.94,362.0
80.95,315.0
80.96,296.0
80.97,295.0
80.98,295.0
80.99,304.0
81.0,327.0
81.01,339.0
81.02,326.0
81.03,292.0
81.04,300.0
81.05,326.0
81.06,328.0
81.07,309.0
81.08,307.0
81.09,303.0
81.1,310.0
81.11,308.0
81.12,307.0
81.13,300.0
81.14,294.0
81.15,346.0
81.16,336.0
81.17,317.0
81.18,364.0
81.19,327.0
81.2,362.0
81.21,296.0
81.22,311.0
81.23,293.0
81.24,351.0
81.25,327.0
81.26,330.0
81.27,328.0
81.28,348.0
81.29,308.0
81.3,315.0
81.31,326.0
81.32,327.0
81.33,296.0
81.34,325.0
81.35,351.0
81.36,308.0
81.37,305.0
81.38,332.0
81.39,307.0
81.4,315.0
81.41,333.0
81.42,306.0
81.43,323.0
81.44,328.0
81.45,317.0
81.46,300.0
81.47,332.0
81.48,310.0
81.49,363.0
81.5,319.0
81.51,319.0
81.52,315.0
81.53,310.0
81.54,296.0
81.55,294.0
81.56,316.0
81.57,328.0
81.58,301.0
81.59,362.0
81.6,312.0
81.61,318.0
81.62,334.0
81.63,328.0
81.64,334.0
81.65,324.0
81.66,318.0
81.67,364.0
81.68,286.0
81.69,319.0
81.7,334.0
81.71,357.0
81.72,351.0
81.73,327.0
81.74,340.0
81.75,329.0
81.76,313.0
81.77,307.0
81.78,311.0
81.79,333.0
81.8,308.0
81.81,314.0
81.82,312.0
81.83,309.0
81.84,319.0
81.85,312.0
81.86,314.0
81.87,331.0
81.88,329.0
81.89,340.0
81.9,329.0
81.91,343.0
81.92,305.0
81.93,316.0
81.94,301.0
81.95,330.0
81.96,315.0
81.97,326.0
81.98,290.0
81.99,353.0
82.0,312.0
82.01,311.0
82.02,344.0
82.03,352.0
82.04,313.0
82.05,312.0
82.06,363.0
82.07,297.0
82.08,327.0
82.09,331.0
82.1,319.0
82.11,318.0
82.12,318.0
82.13,314.0
82.14,304.0
82.15,336.0
82.16,297.0
82.17,319.0
82.18,309.0
82.19,313.0
82.2,348.0
82.21,345.0
82.22,334.0
82.23,304.0
82.24,329.0
82.25,319.0
82.26,345.0
82.27,311.0
82.28,330.0
82.29,328.0
82.3,320.0
82.31,320.0
82.32,312.0
82.33,326.0
82.34,325.0
82.35,333.0
82.36,309.0
82.37,347.0
82.38,325.0
82.39,308.0
82.4,282.0
82.41,297.0
82.42,353.0
82.43,298.0
82.44,311.0
82.45,333.0
82.46,302.0
82.47,324.0
82.48,349.0
82.49,308.0
82.5,307.0
82.51,311.0
82.52,300.0
82.53,306.0
82.54,336.0
82.55,332.0
82.56,323.0
82.57,332.0
82.58,309.0
82.59,312.0
82.6,303.0
82.61,309.0
82.62,284.0
82.63,300.0
82.64,336.0
82.65,322.0
82.66,285.0
82.67,336.0
82.68,321.0
82.69,329.0
82.7,332.0
82.71,314.0
82.72,330.0
82.73,345.0
82.74,320.0
82.75,307.0
82.76,296.0
82.77,311.0
82.78,320.0
82.79,315.0
82.8,305.0
82.81,309.0
82.82,314.0
82.83,291.0
82.84,307.0
82.85,319.0
82.86,312.0
82.87,315.0
82.88,319.0
82.89,342.0
82.9,307.0
82.91,326.0
82.92,298.0
82.93,342.0
82.94,348.0
82.95,324.0
82.96,290.0
82.97,323.0
82.98,340.0
82.99,328.0
83.0,325.0
83.01,334.0
83.02,332.0
83.03,317.0
83.04,303.0
83.05,321.0
83.06,302.0
83.07,331.0
83.08,337.0
83.09,312.0
83.1,326.0
83.11,319.0
83.12,303.0
83.13,313.0
83.14,318.0
83.15,330.0
83.16,290.0
83.17,298.0
83.18,291.0
83.19,306.0
83.2,324.0
83.21,333.0
83.22,303.0
83.23,313.0
83.24,302.0
83.25,276.0
83.26,314.0
83.27,300.0
83.28,327.0
83.29,319.0
83.3,314.0
83.31,316.0
83.32,298.0
83.33,318.0
83.34,311.0
83.35,330.0
83.36,332.0
83.37,317.0
83.38,316.0
83.39,298.0
83.4,317.0
83.41,335.0
83.42,329.0
83.43,311.0
83.44,306.0
83.45,318.0
83.46,347.0
83.47,351.0
83.48,299.0
83.49,284.0
83.5,278.0
83.51,337.0
83.52,287.0
83.53,317.0
83.54,341.0
83.55,299.0
83.56,331.0
83.57,308.0
83.58,334.0
83.59,312.0
83.6,346.0
83.61,336.0
83.62,313.0
83.63,335.0
83.64,309.0
83.65,321.0
83.66,314.0
83.67,334.0
83.68,306.0
83.69,326.0
83.7,328.0
83.71,329.0
83.72,292.0
83.73,323.0
83.74,308.0
83.75,298.0
83.76,315.0
83.77,339.0
83.78,309.0
83.79,306.0
83.8,301.0
83.81,301.0
83.82,312.0
83.83,341.0
83.84,318.0
83.85,309.0
83.86,359.0
83.87,300.0
83.88,335.0
83.89,317.0
83.9,319.0
83.91,311.0
83.92,296.0
83.93,319.0
83.94,336.0
83.95,340.0
83.96,343.0
83.97,323.0
83.98,325.0
83.99,309.0
84.0,326.0
84.01,318.0
84.02,370.0
84.03,320.0
84.04,346.0
84.05,319.0
84.06,333.0
84.07,305.0
84.08,321.0
84.09,326.0
84.1,332.0
84.11,347.0
84.12,319.0
84.13,302.0
84.14,325.0
84.15,306.0
84.16,308.0
84.17,294.0
84.18,302.0
84.19,336.0
84.2,301.0
84.21,318.0
84.22,324.0
84.23,343.0
84.24,305.0
84.25,339.0
84.26,306.0
84.27,318.0
84.28,348.0
84.29,296.0
84.3,350.0
84.31,309.0
84.32,310.0
84.33,318.0
84.34,301.0
84.35,305.0
84.36,313.0
84.37,307.0
84.38,313.0
84.39,311.0
84.4,296.0
84.41,314.0
84.42,288.0
84.43,286.0
84.44,325.0
84.45,294.0
84.46,317.0
84.47,285.0
84.48,305.0
84.49,280.0
84.5,329.0
84.51,338.0
84.52,354.0
84.53,310.0
84.54,291.0
84.55,344.0
84.56,296.0
84.57,322.0
84.58,327.0
84.59,322.0
84.6,294.0
84.61,311.0
84.62,329.0
84.63,311.0
84.64,312.0
84.65,325.0
84.66,345.0
84.67,327.0
84.68,342.0
84.69,336.0
84.7,308.0
84.71,295.0
84.72,314.0
84.73,305.0
84.74,330.0
84.75,333.0
84.76,344.0
84.77,350.0
84.78,317.0
84.79,323.0
84.8,311.0
84.81,323.0
84.82,328.0
84.83,336.0
84.84,311.0
84.85,302.0
84.86,326.0
84.87,309.0
84.88,300.0
84.89,334.0
84.9,336.0
84.91,327.0
84.92,347.0
84.93,311.0
84.94,344.0
84.95,329.0
84.96,324.0
84.97,322.0
84.98,320.0
84.99,333.0
85.0,320.0
85.01,334.0
85.02,336.0
85.03,317.0
85.04,333.0
85.05,326.0
85.06,313.0
85.07,338.0
85.08,312.0
85.09,315.0
85.1,342.0
85.11,326.0
85.12,341.0
85.13,324.0
85.14,320.0
85.15,317.0
85.16,312.0
85.17,280.0
85.18,311.0
85.19,308.0
85.2,303.0
85.21,324.0
85.22,325.0
85.23,323.0
85.24,314.0
85.25,328.0
85.26,316.0
85.27,322.0
85.28,296.0
85.29,330.0
85.3,340.0
85.31,330.0
85.32,293.0
85.33,338.0
85.34,311.0
85.35,304.0
85.36,317.0
85.37,307.0
85.38,348.0
85.39,319.0
85.4,276.0
85.41,371.0
85.42,310.0
85.43,315.0
85.44,277.0
85.45,339.0
85.46,295.0
85.47,328.0
85.48,307.0
85.49,287.0
85.5,308.0
85.51,286.0
85.52,319.0
85.53,319.0
85.54,291.0
85.55,314.0
85.56,300.0
85.57,290.0
85.58,309.0
85.59,321.0
85.6,316.0
85.61,326.0
85.62,312.0
85.63,259.0
85.64,294.0
85.65,338.0
85.66,324.0
85.67,319.0
85.68,292.0
85.69,292.0
85.7,337.0
85.71,297.0
85.72,309.0
85.73,299.0
85.74,297.0
85.75,303.0
85.76,301.0
85.77,338.0
85.78,303.0
85.79,329.0
85.8,313.0
85.81,291.0
85.82,314.0
85.83,319.0
85.84,304.0
85.85,311.0
85.86,296.0
85.87,278.0
85.88,311.0
85.89,321.0
85.9,282.0
85.91,353.0
85.92,313.0
85.93,320.0
85.94,311.0
85.95,305.0
85.96,321.0
85.97,334.0
85.98,329.0
85.99,331.0
86.0,309.0
86.01,314.0
86.02,318.0
86.03,338.0
86.04,322.0
86.05,290.0
86.06,336.0
86.07,316.0
86.08,316.0
86.09,271.0
86.1,330.0
86.11,315.0
86.12,294.0
86.13,362.0
86.14,325.0
86.15,310.0
86.16,334.0
86.17,319.0
86.18,315.0
86.19,322.0
86.2,343.0
86.21,301.0
86.22,324.0
86.23,333.0
86.24,309.0
86.25,312.0
86.26,323.0
86.27,363.0
86.28,342.0
86.29,320.0
86.3,307.0
86.31,319.0
86.32,338.0
86.33,338.0
86.34,331.0
86.35,307.0
86.36,335.0
86.37,315.0
86.38,324.0
86.39,328.0
86.4,306.0
86.41,345.0
86.42,329.0
86.43,319.0
86.44,299.0
86.45,330.0
86.46,308.0
86.47,323.0
86.48,321.0
86.49,336.0
86.5,324.0
86.51,299.0
86.52,321.0
86.53,329.0
86.54,340.0
86.55,302.0
86.56,314.0
86.57,336.0
86.58,322.0
86.59,313.0
86.6,306.0
86.61,321.0
86.62,315.0
86.63,312.0
86.64,336.0
86.65,313.0
86.66,315.0
86.67,308.0
86.68,325.0
86.69,325.0
86.7,312.0
86.71,304.0
86.72,314.0
86.73,324.0
86.74,294.0
86.75,312.0
86.76,317.0
86.77,306.0
86.78,295.0
86.79,292.0
86.8,307.0
86.81,322.0
86.82,352.0
86.83,319.0
86.84,318.0
86.85,349.0
86.86,351.0
86.87,318.0
86.88,321.0
86.89,313.0
86.9,313.0
86.91,321.0
86.92,326.0
86.93,305.0
86.94,323.0
86.95,305.0
86.96,331.0
86.97,301.0
86.98,327.0
86.99,288.0
87.0,334.0
87.01,316.0
87.02,304.0
87.03,294.0
87.04,315.0
87.05,342.0
87.06,306.0
87.07,321.0
87.08,317.0
87.09,318.0
87.1,308.0
87.11,287.0
87.12,311.0
87.13,302.0
87.14,320.0
87.15,346.0
87.16,326.0
87.17,299.0
87.18,297.0
87.19,308.0
87.2,303.0
87.21,302.0
87.22,324.0
87.23,300.0
87.24,317.0
87.25,322.0
87.26,318.0
87.27,321.0
87.28,291.0
87.29,303.0
87.3,301.0
87.31,369.0
87.32,290.0
87.33,313.0
87.34,296.0
87.35,323.0
87.36,330.0
87.37,312.0
87.38,322.0
87.39,311.0
87.4,313.0
87.41,314.0
87.42,290.0
87.43,323.0
87.44,326.0
87.45,339.0
87.46,315.0
87.47,308.0
87.48,309.0
87.49,304.0
87.5,331.0
87.51,347.0
87.52,310.0
87.53,312.0
87.54,309.0
87.55,303.0
87.56,296.0
87.57,295.0
87.58,290.0
87.59,308.0
87.6,291.0
87.61,325.0
87.62,279.0
87.63,291.0
87.64,354.0
87.65,321.0
87.66,331.0
87.67,331.0
87.68,323.0
87.69,339.0
87.7,281.0
87.71,303.0
87.72,364.0
87.73,324.0
87.74,301.0
87.75,332.0
87.76,332.0
87.77,310.0
87.78,324.0
87.79,364.0
87.8,337.0
87.81,286.0
87.82,337.0
87.83,297.0
87.84,316.0
87.85,324.0
87.86,324.0
87.87,289.0
87.88,294.0
87.89,342.0
87.9,323.0
87.91,324.0
87.92,330.0
87.93,320.0
87.94,340.0
87.95,311.0
87.96,311.0
87.97,329.0
87.98,319.0
87.99,307.0
88.0,292.0
88.01,307.0
88.02,331.0
88.03,310.0
88.04,345.0
88.05,302.0
88.06,346.0
88.07,321.0
88.08,313.0
88.09,297.0
88.1,307.0
88.11,307.0
88.12,311.0
88.13,335.0
88.14,337.0
88.15,315.0
88.16,342.0
88.17,325.0
88.18,317.0
88.19,313.0
88.2,333.0
88.21,331.0
88.22,286.0
88.23,284.0
88.24,320.0
88.25,297.0
88.26,329.0
88.27,320.0
88.28,320.0
88.29,342.0
88.3,311.0
88.31,333.0
88.32,316.0
88.33,317.0
88.34,336.0
88.35,301.0
88.36,315.0
88.37,323.0
88.38,322.0
88.39,352.0
88.4,281.0
88.41,324.0
88.42,321.0
88.43,277.0
88.44,352.0
88.45,326.0
88.46,309.0
88.47,319.0
88.48,313.0
88.49,304.0
88.5,387.0
88.51,293.0
88.52,301.0
88.53,304.0
88.54,313.0
88.55,328.0
88.56,336.0
88.57,304.0
88.58,326.0
88.59,316.0
88.6,281.0
88.61,281.0
88.62,307.0
88.63,319.0
88.64,315.0
88.65,291.0
88.66,336.0
88.67,300.0
88.68,343.0
88.69,299.0
88.7,316.0
88.71,326.0
88.72,326.0
88.73,335.0
88.74,327.0
88.75,300.0
88.76,324.0
88.77,312.0
88.78,312.0
88.79,290.0
88.8,292.0
88.81,323.0
88.82,277.0
88.83,325.0
88.84,302.0
88.85,338.0
88.86,331.0
88.87,281.0
88.88,343.0
88.89,292.0
88.9,304.0
88.91,329.0
88.92,329.0
88.93,303.0
88.94,282.0
88.95,346.0
88.96,326.0
88.97,302.0
88.98,294.0
88.99,313.0
89.0,324.0
89.01,319.0
89.02,288.0
89.03,311.0
89.04,313.0
89.05,293.0
89.06,330.0
89.07,291.0
89.08,297.0
89.09,331.0
89.1,313.0
89.11,325.0
89.12,326.0
89.13,314.0
89.14,304.0
89.15,309.0
89.16,300.0
89.17,287.0
89.18,316.0
89.19,298.0
89.2,314.0
89.21,356.0
89.22,300.0
89.23,345.0
89.24,320.0
89.25,316.0
89.26,318.0
89.27,301.0
89.28,314.0
89.29,322.0
89.3,309.0
89.31,331.0
89.32,295.0
89.33,332.0
89.34,334.0
89.35,349.0
89.36,358.0
89.37,306.0
89.38,331.0
89.39,303.0
89.4,314.0
89.41,310.0
89.42,321.0
89.43,312.0
89.44,317.0
89.45,331.0
89.46,327.0
89.47,347.0
89.48,329.0
89.49,320.0
89.5,313.0
89.51,296.0
89.52,314.0
89.53,294.0
89.54,341.0
89.55,336.0
89.56,332.0
89.57,283.0
89.58,283.0
89.59,319.0
89.6,295.0
89.61,344.0
89.62,324.0
89.63,299.0
89.64,316.0
89.65,303.0
89.66,341.0
89.67,294.0
89.68,299.0
89.69,330.0
89.7,318.0
89.71,321.0
89.72,294.0
89.73,338.0
89.74,315.0
89.75,326.0
89.76,337.0
89.77,312.0
89.78,311.0
89.79,313.0
89.8,305.0
89.81,327.0
89.82,296.0
89.83,318.0
89.84,294.0
89.85,310.0
89.86,298.0
89.87,314.0
89.88,313.0
89.89,326.0
89.9,341.0
89.91,314.0
89.92,324.0
89.93,329.0
89.94,302.0
89.95,302.0
89.96,335.0
89.97,296.0
89.98,310.0
89.99,325.0
90.0,326.0
