      Corundum
Diffraction data computed using the structure from the paper listed below, 
along with the cell parameters refined from single crystal data of R110119
      d'Amour H, Schiferl D, Denner W, Schulz H, Holzapfel W B
      Journal of Applied Physics 49 (1978) 4411-4416
      High-pressure single-crystal structure determinations for ruby up to 90 kbar
      using an automatic diffractometer
      P = 0 kbar
      _database_code_amcsd 0012914

      CELL PARAMETERS:   4.7670  4.7670 13.0230   90.000   90.000  120.000
      SPACE GROUP: R-3c      

           ATOM        X         Y         Z     OCCUPANCY  ISO(B)
            Al     0.00000   0.00000   0.35200     1.000     0.140
            O      0.30600   0.00000   0.25000     1.000     0.220

            X-RAY WAVELENGTH:     1.541838
            BOUNDS ON TWO THETA:    5.0  90.0
            LIMITS IMPOSED ON THE INDICES ARE:  +/-  3 +/-  3 +/- 11
            MAX. ABS. INTENSITY / VOLUME**2:      12.45769183    
            The INTENSITY cut off value is   1.00

               2-THETA      INTENSITY    D-SPACING   H   K   L
                25.55         61.56        3.4866    0   1   2
                35.10         94.32        2.5564    1   0   4
                37.74         43.97        2.3835    1   1   0
                43.31         98.16        2.0893    1   1   3
                46.13          1.46        1.9677    2   0   2
                52.49         49.48        1.7433    0   2   4
                57.42        100.00        1.6048    1   1   6
                59.68          2.62        1.5493    2   1   1
                61.07          3.33        1.5174    1   2   2
                61.20          7.35        1.5144    0   1   8
                66.44         39.46        1.4071    2   1   4
                68.14         61.03        1.3761    3   0   0
                70.33          1.32        1.3385    1   2   5
                74.19          1.44        1.2782    2   0   8
                76.74         17.91        1.2420    1   0  10
                77.11          9.55        1.2369    1   1   9
                80.61          2.32        1.1918    2   2   0
                84.26          1.90        1.1492    2   2   3
                86.25          1.43        1.1277    3   1   2
                86.37          2.90        1.1265    1   2   8
                88.84          8.49        1.1014    0   2  10
================================================================================
       XPOW Copyright 1993 Bob Downs, Ranjini Swaminathan and Kurt Bartelmehs
  For reference, see Downs et al. (1993) American Mineralogist 78, 1104-1107.
